 Timestamp_formatted, EXG Channel 0, EXG Channel 1, EXG Channel 2, EXG Channel 3, EXG Channel 4, EXG Channel 5, EXG Channel 6, EXG Channel 7, Accel Channel 0, Accel Channel 1, Accel Channel 2, Other, Other.1, Other.2, Other.3, Other.4, Other.5, Other.6, Analog Channel 0, Analog Channel 1, Analog Channel 2, Other.7
 2023-06-24 15:09:28.085,-37034.76185,29181.29762,2055.622882,21739.08314,17916.73367,-64147.45023,9554.946071,-57739.22744,-0.024,0.092,-0.988,192,0,0,0,0,0,0,0,0,0,0
 2023-06-24 15:09:28.085,-37208.03257,28240.49035,1126.282051,20790.76568,16987.5493,-63585.54972,8633.227185,-57386.22634,-0.024,0.092,-0.988,192,0,0,0,0,0,0,0,0,0,0
 2023-06-24 15:09:28.085,-37439.39548,28490.18168,1402.661372,20998.18987,17259.90531,-64179.05559,8907.013703,-57720.1614,-0.024,0.092,-0.988,192,0,0,0,0,0,0,0,0,0,0
 2023-06-24 15:09:28.085,-37417.2449,29574.50951,2495.751082,22064.77041,18356.07956,-65082.11077,9987.87701,-58264.6946,-0.024,0.092,-0.988,192,0,0,0,0,0,0,0,0,0,0
 2023-06-24 15:09:28.085,-37170.86162,30046.77952,2950.8326,22567.14822,18820.50411,-65091.94554,10458.6271,-58294.66829,-0.024,0.092,-0.988,192,0,0,0,0,0,0,0,0,0,0
 2023-06-24 15:09:28.085,-37024.23418,29217.06041,2101.46631,21786.87117,17972.34481,-64164.92929,9609.774901,-57751.25268,-0.024,0.092,-0.988,192,0,0,0,0,0,0,0,0,0,0
 2023-06-24 15:09:28.085,-37195.33678,28272.6098,1168.057462,20833.56927,17036.52198,-63584.76741,8680.702291,-57387.07571,-0.024,0.092,-0.988,192,0,0,0,0,0,0,0,0,0,0
 2023-06-24 15:09:28.085,-37428.30901,28531.57711,1450.985843,21046.04495,17313.12481,-64160.45894,8968.883332,-57711.93596,-0.022,0.096,-0.994,192,255,80,3,0,224,240,0,0,0,0
 2023-06-24 15:09:28.525,-37413.71333,29594.08964,2518.102827,22078.33792,18376.66552,-65070.91255,10039.64365,-58263.42055,-0.022,0.096,-0.994,192,0,0,0,0,0,0,0,0,0,0
 2023-06-24 15:09:28.525,-37167.66532,30062.89513,2966.098841,22598.41831,18837.02205,-65100.55096,10485.47154,-58304.32425,-0.022,0.096,-0.994,192,0,0,0,0,0,0,0,0,0,0
 2023-06-24 15:09:28.525,-37014.75704,29225.88935,2107.523633,21815.28024,17982.76073,-64183.74946,9623.901203,-57765.73661,-0.022,0.096,-0.994,192,0,0,0,0,0,0,0,0,0,0
 2023-06-24 15:09:28.525,-37175.46608,28294.69333,1188.911639,20867.56627,17058.38198,-63581.79463,8708.23964,-57384.77348,-0.022,0.096,-0.994,192,0,0,0,0,0,0,0,0,0,0
 2023-06-24 15:09:28.525,-37405.46553,28568.32338,1486.592172,21090.30141,17344.19374,-64140.14121,9002.656818,-57695.57449,-0.022,0.096,-0.994,192,0,0,0,0,0,0,0,0,0,0
 2023-06-24 15:09:28.526,-37407.09721,29554.28118,2476.238009,22054.57801,18334.30896,-65069.92907,9973.549542,-58257.72086,-0.022,0.096,-0.994,192,0,0,0,0,0,0,0,0,0,0
 2023-06-24 15:09:28.526,-37164.60313,30031.11095,2935.141675,22560.5321,18800.70046,-65119.21467,10437.46,-58310.24746,-0.022,0.096,-0.994,192,0,0,0,0,0,0,0,0,0,0
 2023-06-24 15:09:28.526,-37001.10012,29259.52873,2142.146485,21840.76123,18011.9521,-64202.56963,9645.492988,-57770.16226,-0.022,0.096,-0.994,192,0,0,0,0,0,0,0,0,0,0
 2023-06-24 15:09:28.526,-37156.57886,28308.61846,1198.701703,20876.28345,17062.38294,-63582.24166,8699.075425,-57380.25843,-0.022,0.096,-0.994,192,0,0,0,0,0,0,0,0,0,0
 2023-06-24 15:09:28.526,-37393.10502,28507.75015,1417.301764,21016.40654,17276.35619,-64132.63102,8927.130273,-57688.69015,-0.018,0.1,-0.99,192,255,112,3,32,225,16,0,0,0,0
 2023-06-24 15:09:28.526,-37391.09336,29555.73404,2474.919257,22036.98719,18331.85027,-65058.35087,9979.405699,-58245.91914,-0.018,0.1,-0.99,192,0,0,0,0,0,0,0,0,0,0
 2023-06-24 15:09:28.526,-37147.43699,30075.16623,2977.118251,22582.3474,18832.26113,-65121.29338,10473.22279,-58307.14057,-0.018,0.1,-0.99,192,0,0,0,0,0,0,0,0,0,0
 2023-06-24 15:09:28.526,-36986.68325,29281.00875,2157.07745,21835.9556,18019.93168,-64215.57834,9662.525018,-57776.04077,-0.018,0.1,-0.99,192,0,0,0,0,0,0,0,0,0,0
 2023-06-24 15:09:28.526,-37136.39523,28347.5105,1232.117561,20898.92577,17098.50336,-63573.88211,8742.303698,-57373.19528,-0.018,0.1,-0.99,192,0,0,0,0,0,0,0,0,0,0
 2023-06-24 15:09:28.526,-37370.82033,28574.76068,1481.093643,21088.49091,17344.17139,-64103.23848,8978.159306,-57668.1936,-0.018,0.1,-0.99,192,0,0,0,0,0,0,0,0,0,0
 2023-06-24 15:09:28.526,-37382.44324,29581.19268,2493.806481,22063.58577,18355.61017,-65038.90485,10008.17239,-58232.35163,-0.018,0.1,-0.99,192,0,0,0,0,0,0,0,0,0,0
 2023-06-24 15:09:28.526,-37146.09589,30073.35574,2974.324283,22577.22885,18836.03857,-65124.26616,10494.79222,-58307.81112,-0.018,0.1,-0.99,192,0,0,0,0,0,0,0,0,0,0
 2023-06-24 15:09:28.526,-36971.9311,29353.92014,2237.588434,21909.69401,18097.22401,-64218.99816,9743.728905,-57775.21375,-0.018,0.1,-0.99,192,0,0,0,0,0,0,0,0,0,0
 2023-06-24 15:09:28.526,-37121.88895,28362.35206,1251.876503,20914.43788,17111.24386,-63564.33792,8768.008204,-57365.70744,-0.018,0.1,-0.99,192,0,0,0,0,0,0,0,0,0,0
 2023-06-24 15:09:28.526,-37363.66777,28529.07372,1441.59811,21046.7155,17307.91686,-64083.59129,8965.418811,-57657.44241,-0.014,0.094,-0.99,192,255,144,2,240,225,16,0,0,0,0
 2023-06-24 15:09:28.526,-37373.21196,29579.27043,2500.087321,22068.30198,18362.20394,-65016.37429,10009.75937,-58219.78995,-0.014,0.094,-0.99,192,0,0,0,0,0,0,0,0,0,0
 2023-06-24 15:09:28.526,-37132.72955,30122.12725,3026.515606,22635.41044,18885.50298,-65117.78416,10544.18958,-58303.1396,-0.014,0.094,-0.99,192,0,0,0,0,0,0,0,0,0,0
 2023-06-24 15:09:28.526,-36963.57154,29362.77144,2250.887722,21936.15847,18115.0607,-64232.40921,9763.867827,-57783.66271,-0.014,0.094,-0.99,192,0,0,0,0,0,0,0,0,0,0
 2023-06-24 15:09:28.526,-37115.78692,28311.63595,1208.961154,20895.70712,17078.29739,-63568.07066,8728.669134,-57368.07673,-0.014,0.094,-0.99,192,0,0,0,0,0,0,0,0,0,0
 2023-06-24 15:09:28.526,-37356.53756,28483.29735,1404.270697,21020.83218,17269.00247,-64069.95673,8916.222622,-57646.98179,-0.014,0.094,-0.99,192,0,0,0,0,0,0,0,0,0,0
 2023-06-24 15:09:28.526,-37375.33538,29492.70213,2423.018506,22004.19718,18282.85525,-65011.05458,9926.990858,-58213.71027,-0.014,0.094,-0.99,192,0,0,0,0,0,0,0,0,0,0
 2023-06-24 15:09:28.526,-37138.02691,30038.24115,2953.984195,22577.07239,18815.34085,-65134.25739,10461.26461,-58310.29216,-0.014,0.094,-0.99,192,0,0,0,0,0,0,0,0,0,0
 2023-06-24 15:09:28.526,-36960.91169,29331.14372,2226.457265,21908.91169,18088.57388,-64253.39749,9726.987449,-57793.43042,-0.014,0.094,-0.99,192,0,0,0,0,0,0,0,0,0,0
 2023-06-24 15:09:28.526,-37103.38171,28298.89545,1199.595773,20876.84225,17062.85233,-63567.86949,8715.682771,-57364.72396,-0.014,0.094,-0.99,192,0,0,0,0,0,0,0,0,0,0
 2023-06-24 15:09:28.526,-37349.54147,28425.42868,1345.575016,20954.53691,17203.15423,-64059.27259,8860.387964,-57639.15868,-0.014,0.094,-0.99,192,0,0,0,0,0,0,0,0,0,0
 2023-06-24 15:09:28.526,-37372.69787,29460.24739,2391.927229,21946.06029,18239.24699,-65003.05265,9900.302875,-58205.55189,-0.018,0.096,-0.988,192,255,112,3,0,225,32,0,0,0,0
 2023-06-24 15:09:28.526,-37135.00942,30035.58129,2952.352518,22547.72455,18804.47791,-65145.58973,10456.6825,-58312.0356,-0.018,0.096,-0.988,192,0,0,0,0,0,0,0,0,0,0
 2023-06-24 15:09:28.526,-36954.29557,29326.49455,2220.846977,21874.04297,18068.09969,-64274.83282,9723.54528,-57801.70057,-0.018,0.096,-0.988,192,0,0,0,0,0,0,0,0,0,0
 2023-06-24 15:09:28.526,-37089.94831,28280.00823,1176.886401,20830.95411,17034.68913,-63570.17172,8694.627427,-57360.87946,-0.018,0.096,-0.988,192,0,0,0,0,0,0,0,0,0,0
 2023-06-24 15:09:28.526,-37324.86514,28456.09527,1374.83345,20961.4883,17229.08225,-64035.78091,8873.15081,-57618.12569,-0.018,0.096,-0.988,192,0,0,0,0,0,0,0,0,0,0
 2023-06-24 15:09:28.526,-37349.31795,29491.33867,2420.358648,21960.20895,18264.9515,-64978.44338,9914.853861,-58184.85417,-0.018,0.096,-0.988,192,0,0,0,0,0,0,0,0,0,0
 2023-06-24 15:09:28.526,-37109.79666,30109.83379,3023.676935,22603.26864,18868.29214,-65134.43621,10516.3393,-58300.25623,-0.018,0.096,-0.988,192,0,0,0,0,0,0,0,0,0,0
 2023-06-24 15:09:28.526,-36929.41808,29406.37969,2300.642705,21943.80277,18140.69815,-64275.2575,9785.638426,-57800.60533,-0.018,0.096,-0.988,192,0,0,0,0,0,0,0,0,0,0
 2023-06-24 15:09:28.526,-37065.51785,28327.34922,1232.452838,20859.76551,17070.89896,-63556.31364,8726.523367,-57353.16811,-0.018,0.096,-0.988,192,0,0,0,0,0,0,0,0,0,0
 2023-06-24 15:09:28.526,-37300.25587,28492.70743,1416.653564,20985.82935,17263.07926,-64004.8461,8915.060331,-57599.46198,-0.018,0.096,-0.988,192,0,0,0,0,0,0,0,0,0,0
 2023-06-24 15:09:28.526,-37327.01091,29554.34824,2480.842469,22025.07371,18328.27399,-64949.76609,9986.066519,-58165.13993,-0.018,0.096,-0.986,192,255,112,3,0,225,48,0,0,0,0
 2023-06-24 15:09:28.526,-37103.8958,30085.91742,2994.865536,22587.60006,18846.76741,-65139.01831,10509.2985,-58301.21735,-0.018,0.096,-0.986,192,0,0,0,0,0,0,0,0,0,0
 2023-06-24 15:09:28.526,-36920.72325,29393.54979,2283.543621,21944.33921,18139.24529,-64292.37894,9802.491641,-57808.29433,-0.018,0.096,-0.986,192,0,0,0,0,0,0,0,0,0,0
 2023-06-24 15:09:28.526,-37045.31187,28356.94293,1256.816239,20911.35334,17108.85222,-63549.25049,8765.77303,-57345.23324,-0.018,0.096,-0.986,192,0,0,0,0,0,0,0,0,0,0
 2023-06-24 15:09:28.526,-37289.05765,28456.02822,1380.08611,20973.20062,17233.88788,-63987.16587,8876.078889,-57587.07912,-0.018,0.096,-0.986,192,0,0,0,0,0,0,0,0,0,0
 2023-06-24 15:09:28.526,-37330.94482,29463.68956,2398.364532,21960.45482,18251.76397,-64942.01004,9888.635264,-58159.84257,-0.018,0.096,-0.986,192,0,0,0,0,0,0,0,0,0,0
 2023-06-24 15:09:28.526,-37106.77917,30058.38007,2974.525449,22584.73904,18832.79757,-65147.26611,10477.04494,-58305.35243,-0.018,0.096,-0.986,192,0,0,0,0,0,0,0,0,0,0
 2023-06-24 15:09:28.526,-36914.21889,29419.50016,2311.907984,21986.24873,18170.85065,-64308.29338,9825.849214,-57816.67624,-0.018,0.096,-0.986,192,0,0,0,0,0,0,0,0,0,0
 2023-06-24 15:09:28.526,-37039.25455,28322.70006,1219.377067,20885.62648,17076.24103,-63553.76554,8737.766294,-57348.92128,-0.018,0.096,-0.986,192,0,0,0,0,0,0,0,0,0,0
 2023-06-24 15:09:28.526,-37282.6427,28392.81748,1309.566356,20915.22019,17171.70533,-63974.80535,8823.664048,-57581.58059,-0.018,0.096,-0.986,192,0,0,0,0,0,0,0,0,0,0
 2023-06-24 15:09:28.526,-37326.16154,29401.05997,2329.185883,21899.07693,18187.56976,-64929.60482,9831.68302,-58153.74054,-0.016,0.096,-0.988,192,255,128,3,0,225,32,0,0,0,0
 2023-06-24 15:09:28.527,-37094.01632,30064.28093,2979.755757,22581.16276,18832.01526,-65147.89196,10482.87874,-58306.35825,-0.016,0.096,-0.988,192,0,0,0,0,0,0,0,0,0,0
 2023-06-24 15:09:28.527,-36903.71357,29382.73154,2277.463946,21941.43348,18130.59516,-64325.37011,9795.29438,-57832.50127,-0.016,0.096,-0.988,192,0,0,0,0,0,0,0,0,0,0
 2023-06-24 15:09:28.527,-37020.23322,28301.91294,1201.428616,20856.85979,17055.3645,-63551.91035,8727.015105,-57352.29639,-0.016,0.096,-0.988,192,0,0,0,0,0,0,0,0,0,0
 2023-06-24 15:09:28.527,-37255.083,28423.46173,1346.022051,20922.84214,17187.44095,-63950.71017,8870.423898,-57567.11901,-0.016,0.096,-0.988,192,0,0,0,0,0,0,0,0,0,0
 2023-06-24 15:09:28.527,-37306.78258,29408.92779,2340.831142,21876.97105,18176.55035,-64909.17533,9852.559549,-58139.32367,-0.016,0.096,-0.988,192,0,0,0,0,0,0,0,0,0,0
 2023-06-24 15:09:28.527,-37083.17573,30051.62985,2969.518658,22541.17549,18808.76944,-65150.373,10466.38316,-58305.93357,-0.016,0.096,-0.988,192,0,0,0,0,0,0,0,0,0,0
 2023-06-24 15:09:28.527,-36886.70389,29392.3875,2287.544583,21936.96313,18136.00429,-64340.65871,9793.997978,-57838.40213,-0.016,0.096,-0.988,192,0,0,0,0,0,0,0,0,0,0
 2023-06-24 15:09:28.527,-36998.1944,28296.9732,1199.260497,20849.21549,17047.60844,-63552.11151,8695.096814,-57349.30126,-0.016,0.096,-0.988,192,0,0,0,0,0,0,0,0,0,0
 2023-06-24 15:09:28.527,-37240.12968,28375.69605,1298.636353,20893.80722,17147.52074,-63936.87444,8788.772975,-57557.68657,-0.016,0.096,-0.988,192,0,0,0,0,0,0,0,0,0,0
 2023-06-24 15:09:28.527,-37304.16743,29324.34879,2260.007234,21804.37259,18103.41544,-64899.74289,9765.097173,-58133.3781,-0.02,0.094,-0.99,192,255,96,2,240,225,16,0,0,0,0
 2023-06-24 15:09:28.527,-37084.85211,29996.15282,2918.623736,22496.89668,18763.46246,-65160.23012,10422.48433,-58311.90149,-0.02,0.094,-0.99,192,0,0,0,0,0,0,0,0,0,0
 2023-06-24 15:09:28.527,-36881.78651,29420.05896,2316.668906,21976.32456,18168.66018,-64358.24953,9820.887127,-57847.56635,-0.02,0.094,-0.99,192,0,0,0,0,0,0,0,0,0,0
 2023-06-24 15:09:28.527,-36987.26439,28350.55034,1247.584969,20906.43596,17101.23028,-63548.06585,8765.415402,-57343.80273,-0.02,0.094,-0.99,192,0,0,0,0,0,0,0,0,0,0
 2023-06-24 15:09:28.527,-37225.64575,28450.77556,1367.435022,20959.72251,17219.18043,-63908.68889,8878.582284,-57535.87127,-0.02,0.094,-0.99,192,0,0,0,0,0,0,0,0,0,0
 2023-06-24 15:09:28.527,-37284.29673,29454.5477,2383.791194,21936.20317,18230.93214,-64860.47087,9877.504096,-58102.95738,-0.02,0.094,-0.99,192,0,0,0,0,0,0,0,0,0,0
 2023-06-24 15:09:28.527,-37072.78217,30098.27794,3014.847996,22603.84978,18863.41946,-65142.23696,10509.2091,-58294.40007,-0.02,0.094,-0.99,192,0,0,0,0,0,0,0,0,0,0
 2023-06-24 15:09:28.527,-36870.05185,29509.82356,2404.198337,22061.64116,18251.71927,-64361.24466,9910.338808,-57842.93954,-0.02,0.094,-0.99,192,0,0,0,0,0,0,0,0,0,0
 2023-06-24 15:09:28.527,-36987.84554,28312.3065,1209.341134,20868.99678,17057.57732,-63553.47497,8722.611811,-57345.16619,-0.02,0.094,-0.99,192,0,0,0,0,0,0,0,0,0,0
 2023-06-24 15:09:28.527,-37236.15107,28337.29575,1257.442088,20850.82482,17106.99703,-63907.88423,8763.560207,-57534.82074,-0.02,0.094,-0.99,192,0,0,0,0,0,0,0,0,0,0
 2023-06-24 15:09:28.527,-37300.85937,29346.52172,2276.994559,21823.1257,18127.33181,-64861.65552,9789.974664,-58101.21394,-0.022,0.094,-0.992,192,255,80,2,240,225,0,0,0,0,0
 2023-06-24 15:09:28.527,-37079.71121,30113.56653,3031.589452,22611.22586,18878.55159,-65149.50128,10533.17017,-58292.1649,-0.022,0.094,-0.992,192,0,0,0,0,0,0,0,0,0,0
 2023-06-24 15:09:28.527,-36867.41434,29592.14504,2490.409015,22136.34069,18330.33035,-64375.2145,9989.173411,-57847.29813,-0.022,0.094,-0.992,192,0,0,0,0,0,0,0,0,0,0
 2023-06-24 15:09:28.527,-36957.22365,28517.94255,1417.547633,21069.53663,17264.71093,-63533.47016,8923.799863,-57325.4743,-0.022,0.094,-0.992,192,0,0,0,0,0,0,0,0,0,0
 2023-06-24 15:09:28.527,-37201.63997,28522.54701,1443.877988,21030.24227,17286.7274,-63864.87947,8942.865901,-57502.9248,-0.022,0.094,-0.992,192,0,0,0,0,0,0,0,0,0,0
 2023-06-24 15:09:28.527,-37277.50179,29468.24932,2406.008828,21945.81442,18242.21977,-64822.00352,9898.157108,-58074.12363,-0.022,0.094,-0.992,192,0,0,0,0,0,0,0,0,0,0
 2023-06-24 15:09:28.527,-37068.96002,30184.73449,3110.647572,22684.02549,18951.46298,-65133.25156,10598.21374,-58282.75481,-0.022,0.094,-0.992,192,0,0,0,0,0,0,0,0,0,0
 2023-06-24 15:09:28.527,-36864.19569,29629.04777,2530.977432,22187.52619,18376.10672,-64380.93655,10017.35896,-57853.24369,-0.022,0.094,-0.992,192,0,0,0,0,0,0,0,0,0,0
 2023-06-24 15:09:28.527,-36964.30915,28464.38777,1370.631322,21027.15773,17212.22904,-63537.67229,8859.963281,-57332.20218,-0.022,0.094,-0.992,192,0,0,0,0,0,0,0,0,0,0
 2023-06-24 15:09:28.527,-37207.65259,28483.9679,1413.412561,20996.40173,17251.14343,-63848.89798,8895.56961,-57494.52054,-0.022,0.094,-0.992,192,0,0,0,0,0,0,0,0,0,0
 2023-06-24 15:09:28.527,-37285.32491,29435.57107,2376.929209,21920.64636,18211.1285,-64803.7198,9847.798627,-58063.66301,-0.016,0.1,-0.988,192,255,128,3,32,225,32,0,0,0,0
 2023-06-24 15:09:28.527,-37077.94542,30171.05522,3097.661209,22671.28499,18933.44747,-65132.89394,10577.24781,-58283.40301,-0.016,0.1,-0.988,192,0,0,0,0,0,0,0,0,0,0
 2023-06-24 15:09:28.527,-36855.83614,29726.27786,2630.040363,22274.67564,18469.55937,-64385.4069,10109.49285,-57854.92007,-0.016,0.1,-0.988,192,0,0,0,0,0,0,0,0,0,0
 2023-06-24 15:09:28.527,-36955.65903,28502.40809,1406.662334,21067.68144,17245.6896,-63533.09018,8894.943761,-57331.30811,-0.016,0.1,-0.988,192,0,0,0,0,0,0,0,0,0,0
 2023-06-24 15:09:28.527,-37206.17738,28457.1011,1380.823717,20976.59808,17219.69452,-63831.46361,8869.105145,-57488.39617,-0.016,0.1,-0.988,192,0,0,0,0,0,0,0,0,0,0
 2023-06-24 15:09:28.527,-37287.09069,29427.97147,2365.28395,21911.81742,18207.03813,-64785.61488,9858.9745,-58054.61056,-0.016,0.1,-0.988,192,0,0,0,0,0,0,0,0,0,0
 2023-06-24 15:09:28.527,-37081.45464,30195.1951,3120.080009,22716.32376,18971.33368,-65132.17868,10593.56458,-58283.00068,-0.016,0.1,-0.988,192,0,0,0,0,0,0,0,0,0,0
 2023-06-24 15:09:28.527,-36868.55428,29680.88146,2581.894706,22251.38512,18433.32719,-64411.78196,10047.39971,-57875.01429,-0.016,0.1,-0.988,192,0,0,0,0,0,0,0,0,0,0
 2023-06-24 15:09:28.527,-36956.15076,28503.12334,1404.516566,21076.64449,17260.4194,-63542.12028,8882.985578,-57340.42762,-0.016,0.1,-0.988,192,0,0,0,0,0,0,0,0,0,0
 2023-06-24 15:09:28.527,-37195.53795,28501.894,1423.739067,21025.23548,17280.37951,-63813.26929,8901.448119,-57479.67899,-0.016,0.1,-0.988,192,0,0,0,0,0,0,0,0,0,0
 2023-06-24 15:09:28.527,-37279.11112,29451.19494,2383.165346,21929.02826,18231.73681,-64764.15721,9855.353517,-58045.71456,-0.024,0.1,-0.994,192,255,64,3,32,224,240,0,0,0,0
 2023-06-24 15:09:28.527,-37088.5178,30152.41386,3069.095679,22650.31906,18919.47763,-65136.76079,10543.8543,-58293.05897,-0.024,0.1,-0.994,192,0,0,0,0,0,0,0,0,0,0
 2023-06-24 15:09:28.527,-36866.98966,29726.41197,2617.813959,22276.62024,18475.77315,-64423.56133,10085.95646,-57886.99483,-0.024,0.1,-0.994,192,0,0,0,0,0,0,0,0,0,0
 2023-06-24 15:09:28.527,-36947.52299,28563.31659,1453.712756,21120.25274,17308.72152,-63538.85693,8929.298392,-57343.04277,-0.024,0.1,-0.994,192,0,0,0,0,0,0,0,0,0,0
 2023-06-24 15:09:28.527,-37205.68564,28425.85336,1342.021089,20946.57969,17191.03958,-63803.23336,8812.935211,-57480.5507,-0.024,0.1,-0.994,192,0,0,0,0,0,0,0,0,0,0
 2023-06-24 15:09:28.527,-37293.79622,29384.22911,2315.394856,21875.56289,18166.17914,-64753.94246,9774.730775,-58043.09941,-0.024,0.1,-0.994,192,0,0,0,0,0,0,0,0,0,0
 2023-06-24 15:09:28.527,-37096.72089,30167.54599,3085.233639,22676.15767,18934.02862,-65138.07954,10543.42962,-58292.63428,-0.024,0.1,-0.994,192,0,0,0,0,0,0,0,0,0,0
 2023-06-24 15:09:28.527,-36871.79528,29751.24475,2645.194846,22300.08957,18491.7323,-64439.85575,10104.62017,-57894.61677,-0.024,0.1,-0.994,192,0,0,0,0,0,0,0,0,0,0
 2023-06-24 15:09:28.527,-36941.59978,28607.6848,1501.187861,21160.91057,17347.39004,-63537.96286,8971.766707,-57341.34404,-0.024,0.1,-0.994,192,0,0,0,0,0,0,0,0,0,0
 2023-06-24 15:09:28.527,-37198.28721,28444.13709,1360.885961,20958.71669,17205.67998,-63782.96033,8826.726237,-57471.00651,-0.024,0.1,-0.994,192,0,0,0,0,0,0,0,0,0,0
 2023-06-24 15:09:28.527,-37295.98669,29358.97164,2286.538754,21842.43761,18131.42218,-64732.86477,9749.093324,-58035.38806,-0.018,0.094,-0.99,192,255,112,2,240,225,16,0,0,0,0
 2023-06-24 15:09:28.527,-37104.09696,30159.14174,3072.247275,22658.47744,18920.72933,-65132.11162,10537.75228,-58295.80823,-0.018,0.094,-0.99,192,0,0,0,0,0,0,0,0,0,0
 2023-06-24 15:09:28.527,-36870.90121,29805.26892,2697.922611,22356.23716,18550.96442,-64444.75078,10166.46745,-57904.04921,-0.018,0.094,-0.99,192,0,0,0,0,0,0,0,0,0,0
 2023-06-24 15:09:28.527,-36941.15274,28608.98121,1499.824405,21186.72683,17366.45608,-63540.15333,8976.505277,-57347.58018,-0.018,0.094,-0.99,192,0,0,0,0,0,0,0,0,0,0
 2023-06-24 15:09:28.527,-37196.52142,28459.15746,1371.234819,20995.35119,17236.50303,-63764.43073,8846.552234,-57460.18826,-0.018,0.094,-0.99,192,0,0,0,0,0,0,0,0,0,0
 2023-06-24 15:09:28.527,-37294.13149,29373.63438,2303.1461,21870.26553,18159.13834,-64711.92118,9763.867827,-58021.97701,-0.018,0.094,-0.99,192,0,0,0,0,0,0,0,0,0,0
 2023-06-24 15:09:28.527,-37104.14166,30168.57417,3090.709816,22681.07506,18943.66222,-65128.91533,10547.72115,-58292.88015,-0.018,0.094,-0.99,192,0,0,0,0,0,0,0,0,0,0
 2023-06-24 15:09:28.527,-36871.99645,29812.93557,2711.668934,22372.1963,18568.06351,-64460.17348,10176.7269,-57913.61575,-0.018,0.094,-0.99,192,0,0,0,0,0,0,0,0,0,0
 2023-06-24 15:09:28.990,-36927.45113,28670.64967,1569.181868,21239.27578,17424.57061,-63536.19707,9045.259243,-57346.68611,-0.018,0.094,-0.99,192,0,0,0,0,0,0,0,0,0,0
 2023-06-24 15:09:28.991,-37181.76927,28494.8532,1416.161825,21020.83218,17271.93055,-63742.57073,8886.584209,-57450.46526,-0.018,0.094,-0.99,192,0,0,0,0,0,0,0,0,0,0
 2023-06-24 15:09:28.991,-37296.99252,29310.78128,2243.913978,21812.64273,18101.98493,-64698.13015,9698.488974,-58019.07128,-0.014,0.096,-0.988,192,255,144,3,0,225,32,0,0,0,0
 2023-06-24 15:09:28.991,-37113.6188,30111.8231,3033.690516,22631.09656,18890.44272,-65133.43038,10491.61827,-58300.32328,-0.014,0.096,-0.988,192,0,0,0,0,0,0,0,0,0,0
 2023-06-24 15:09:28.991,-36934.31311,28585.28836,1479.573724,21152.55101,17334.69425,-63550.97157,8956.411058,-57361.77353,-0.014,0.096,-0.988,192,0,0,0,0,0,0,0,0,0,0
 2023-06-24 15:09:28.991,-37187.67013,28392.75043,1307.509995,20918.41649,17159.59068,-63741.34138,8767.270597,-57455.80732,-0.014,0.096,-0.988,192,0,0,0,0,0,0,0,0,0,0
 2023-06-24 15:09:28.991,-37300.38998,29257.00298,2190.605067,21737.92085,18034.48266,-64686.93193,9638.787465,-58015.94204,-0.014,0.096,-0.988,192,0,0,0,0,0,0,0,0,0,0
 2023-06-24 15:09:28.991,-37111.94242,30140.23216,3062.591322,22637.57856,18909.55346,-65130.52465,10517.70276,-58299.92095,-0.014,0.096,-0.988,192,0,0,0,0,0,0,0,0,0,0
 2023-06-24 15:09:28.991,-36883.35113,29767.76269,2663.724442,22317.79216,18515.4028,-64497.63501,10129.78824,-57943.83531,-0.014,0.096,-0.988,192,0,0,0,0,0,0,0,0,0,0
 2023-06-24 15:09:28.991,-36937.28589,28557.46043,1452.326948,21118.73282,17300.47373,-63564.60614,8924.582174,-57373.70937,-0.014,0.096,-0.988,192,0,0,0,0,0,0,0,0,0,0
 2023-06-24 15:09:28.991,-37184.74206,28400.79706,1316.674211,20923.78091,17163.81516,-63728.33267,8784.950827,-57450.24174,-0.014,0.096,-0.988,192,0,0,0,0,0,0,0,0,0,0
 2023-06-24 15:09:28.991,-37295.33849,29303.89694,2235.152094,21795.47659,18084.57292,-64664.35667,9701.238239,-58001.52516,-0.016,0.096,-0.99,192,255,128,3,0,225,16,0,0,0,0
 2023-06-24 15:09:28.991,-37112.233,30149.99987,3071.80024,22651.63781,18916.81777,-65128.87062,10536.83585,-58298.69161,-0.016,0.096,-0.99,192,0,0,0,0,0,0,0,0,0,0
 2023-06-24 15:09:28.991,-36874.41044,29843.57981,2745.420068,22392.6258,18586.57075,-64502.41828,10203.83956,-57945.6011,-0.016,0.096,-0.99,192,0,0,0,0,0,0,0,0,0,0
 2023-06-24 15:09:28.991,-36923.58427,28606.3884,1509.659172,21178.00965,17352.44153,-63558.3253,8969.509181,-57369.46253,-0.016,0.096,-0.99,192,0,0,0,0,0,0,0,0,0,0
 2023-06-24 15:09:28.991,-37182.88686,28325.29286,1253.396422,20860.48077,17097.54224,-63715.88274,8713.335838,-57444.6538,-0.016,0.096,-0.99,192,0,0,0,0,0,0,0,0,0,0
 2023-06-24 15:09:28.991,-37305.03914,29173.47451,2116.106703,21681.19212,17961.3254,-64654.4772,9567.194827,-58001.23459,-0.016,0.096,-0.99,192,0,0,0,0,0,0,0,0,0,0
 2023-06-24 15:09:28.991,-37124.66057,30064.97384,2995.893716,22579.88871,18842.54293,-65135.24087,10449.06055,-58309.46515,-0.016,0.096,-0.99,192,0,0,0,0,0,0,0,0,0,0
 2023-06-24 15:09:28.991,-36876.71267,29838.46126,2746.001213,22397.52083,18595.71261,-64519.24914,10204.73363,-57960.44266,-0.016,0.096,-0.99,192,0,0,0,0,0,0,0,0,0,0
 2023-06-24 15:09:28.991,-36913.48128,28637.83731,1541.376298,21214.30888,17389.47837,-63561.85687,9002.880335,-57374.71519,-0.016,0.096,-0.99,192,0,0,0,0,0,0,0,0,0,0
 2023-06-24 15:09:28.991,-37168.58174,28362.48617,1286.007617,20902.4797,17133.21562,-63696.0791,8743.644803,-57432.78503,-0.016,0.096,-0.99,192,0,0,0,0,0,0,0,0,0,0
 2023-06-24 15:09:28.991,-37284.29673,29263.68615,2205.021942,21761.68075,18049.99477,-64622.60361,9658.904035,-57975.1054,-0.022,0.092,-0.988,192,255,80,2,224,225,32,0,0,0,0
 2023-06-24 15:09:28.991,-37108.05322,30140.61214,3077.030549,22648.19564,18916.63896,-65119.88522,10518.03804,-58291.06966,-0.022,0.092,-0.988,192,0,0,0,0,0,0,0,0,0,0
 2023-06-24 15:09:28.991,-36870.52123,29844.47388,2757.62412,22403.95813,18603.55808,-64527.6534,10213.56257,-57959.50388,-0.022,0.092,-0.988,192,0,0,0,0,0,0,0,0,0,0
 2023-06-24 15:09:28.991,-36908.58625,28608.2436,1515.068294,21204.04943,17367.93129,-63569.18825,8981.176791,-57374.82695,-0.022,0.092,-0.988,192,0,0,0,0,0,0,0,0,0,0
 2023-06-24 15:09:28.991,-37156.37769,28376.23249,1303.263164,20931.3805,17152.03579,-63679.65057,8761.146219,-57416.78118,-0.022,0.092,-0.988,192,0,0,0,0,0,0,0,0,0,0
 2023-06-24 15:09:28.991,-37278.8429,29252.35382,2198.919916,21760.83139,18039.10947,-64601.59297,9659.641643,-57958.11808,-0.022,0.092,-0.988,192,0,0,0,0,0,0,0,0,0,0
 2023-06-24 15:09:28.991,-37113.99878,30092.6453,3028.460208,22618.46782,18875.22118,-65122.05334,10485.15862,-58290.24265,-0.022,0.092,-0.988,192,0,0,0,0,0,0,0,0,0,0
 2023-06-24 15:09:28.991,-36868.10724,29867.7644,2778.902981,22427.15924,18626.58037,-64540.86328,10235.60139,-57963.72836,-0.022,0.092,-0.988,192,0,0,0,0,0,0,0,0,0,0
 2023-06-24 15:09:28.991,-36890.12371,28688.9334,1592.964124,21267.46133,17438.67456,-63564.42732,9056.971557,-57366.80268,-0.022,0.092,-0.988,192,0,0,0,0,0,0,0,0,0,0
 2023-06-24 15:09:28.991,-37143.99483,28363.44729,1288.868641,20912.98502,17132.47801,-63660.2716,8743.644803,-57404.10774,-0.022,0.092,-0.988,192,0,0,0,0,0,0,0,0,0,0
 2023-06-24 15:09:28.991,-37274.59607,29197.0109,2137.564377,21716.35142,17984.16889,-64580.71644,9590.820621,-57943.81296,-0.02,0.088,-0.984,192,255,96,2,192,225,64,0,0,0,0
 2023-06-24 15:09:28.991,-37110.84719,30091.4383,3025.398019,22602.91101,18867.91216,-65116.80068,10479.25776,-58281.74898,-0.02,0.088,-0.984,192,0,0,0,0,0,0,0,0,0,0
 2023-06-24 15:09:28.991,-36873.89635,29828.47003,2737.552254,22387.97663,18586.16842,-64561.02455,10191.79197,-57970.83622,-0.02,0.088,-0.984,192,0,0,0,0,0,0,0,0,0,0
 2023-06-24 15:09:28.991,-36899.31028,28607.26012,1508.273364,21194.28172,17357.71654,-63585.70618,8961.775477,-57376.30217,-0.02,0.088,-0.984,192,0,0,0,0,0,0,0,0,0,0
 2023-06-24 15:09:28.991,-37139.30096,28353.14314,1274.407062,20892.57787,17115.15541,-63652.02381,8727.59625,-57393.3342,-0.02,0.088,-0.984,192,0,0,0,0,0,0,0,0,0,0
 2023-06-24 15:09:28.992,-37264.58249,29207.42681,2146.862703,21705.01908,17980.65966,-64559.7505,9589.099537,-57924.12107,-0.02,0.088,-0.984,192,0,0,0,0,0,0,0,0,0,0
 2023-06-24 15:09:28.992,-37101.12418,30120.29441,3052.935368,22625.59803,18888.9675,-65107.63646,10490.14306,-58269.67904,-0.02,0.088,-0.984,192,0,0,0,0,0,0,0,0,0,0
 2023-06-24 15:09:28.992,-36863.32397,29879.14144,2790.190612,22430.22143,18629.37434,-64566.7466,10224.60434,-57970.07626,-0.02,0.088,-0.984,192,0,0,0,0,0,0,0,0,0,0
 2023-06-24 15:09:28.992,-36878.05377,28697.22589,1598.999095,21272.46812,17436.50644,-63579.35829,9038.464312,-57367.51793,-0.02,0.088,-0.984,192,0,0,0,0,0,0,0,0,0,0
 2023-06-24 15:09:28.992,-37121.01723,28402.00405,1323.357382,20939.76241,17162.47406,-63629.40385,8775.697205,-57376.99507,-0.02,0.088,-0.984,192,0,0,0,0,0,0,0,0,0,0
 2023-06-24 15:09:28.992,-37260.73799,29191.28885,2130.478875,21692.81503,17965.1699,-64537.91285,9570.145258,-57910.41945,-0.022,0.094,-0.988,192,255,80,2,240,225,32,0,0,0,0
 2023-06-24 15:09:28.992,-37103.9405,30096.5345,3028.303746,22603.69332,18862.92772,-65104.52957,10473.20044,-58269.7908,-0.022,0.094,-0.988,192,0,0,0,0,0,0,0,0,0,0
 2023-06-24 15:09:28.992,-36852.1481,29971.54355,2882.905648,22529.01614,18728.16905,-64569.83114,10336.74304,-57972.37849,-0.022,0.094,-0.988,192,0,0,0,0,0,0,0,0,0,0
 2023-06-24 15:09:28.992,-36862.83223,28757.37444,1658.655901,21352.68853,17514.1117,-63578.12894,9118.617668,-57367.04855,-0.022,0.094,-0.988,192,0,0,0,0,0,0,0,0,0,0
 2023-06-24 15:09:28.992,-37104.92398,28431.53071,1353.040499,20983.2142,17205.59057,-63609.06376,8810.677685,-57364.20987,-0.022,0.094,-0.988,192,0,0,0,0,0,0,0,0,0,0
 2023-06-24 15:09:28.992,-37252.17727,29189.03133,2125.047401,21689.84225,17971.54015,-64514.1753,9569.832333,-57895.28732,-0.022,0.094,-0.988,192,0,0,0,0,0,0,0,0,0,0
 2023-06-24 15:09:28.992,-37098.10669,30118.79684,3048.397964,22615.49504,18888.02873,-65096.72881,10490.85832,-58261.38654,-0.022,0.094,-0.988,192,0,0,0,0,0,0,0,0,0,0
 2023-06-24 15:09:28.992,-36848.19184,29987.34623,2896.987247,22523.04822,18734.89693,-64584.65035,10335.87132,-57976.82649,-0.022,0.094,-0.988,192,0,0,0,0,0,0,0,0,0,0
 2023-06-24 15:09:28.992,-36855.61262,28767.54448,1671.664616,21339.90334,17516.52569,-63589.52833,9124.049142,-57370.40131,-0.022,0.094,-0.988,192,0,0,0,0,0,0,0,0,0,0
 2023-06-24 15:09:28.992,-37104.47694,28369.45991,1295.037722,20906.86064,17140.92697,-63605.8004,8749.657422,-57360.0748,-0.022,0.094,-0.988,192,0,0,0,0,0,0,0,0,0,0
 2023-06-24 15:09:28.992,-37257.47463,29111.00139,2054.974682,21603.20689,17895.05248,-64504.09466,9497.122109,-57887.59832,-0.022,0.094,-0.988,192,255,80,2,240,225,32,0,0,0,0
 2023-06-24 15:09:28.992,-37104.20872,30076.46264,3013.216318,22572.0209,18852.89179,-65097.2429,10448.05472,-58260.42542,-0.022,0.094,-0.988,192,0,0,0,0,0,0,0,0,0,0
 2023-06-24 15:09:28.992,-36849.51059,30002.63482,2914.44396,22538.35917,18756.10873,-64596.8991,10346.77897,-57983.59906,-0.022,0.094,-0.988,192,0,0,0,0,0,0,0,0,0,0
 2023-06-24 15:09:28.992,-36856.37258,28755.20632,1655.839581,21318.40096,17501.8853,-63598.58079,9108.849956,-57379.31965,-0.022,0.094,-0.988,192,0,0,0,0,0,0,0,0,0,0
 2023-06-24 15:09:28.992,-37105.63923,28344.06833,1265.421661,20865.59932,17106.52764,-63593.79752,8711.681808,-57359.13603,-0.022,0.094,-0.988,192,0,0,0,0,0,0,0,0,0,0
 2023-06-24 15:09:28.992,-37253.89835,29155.99545,2092.816185,21638.85792,17930.32353,-64478.07723,9534.94126,-57875.41662,-0.022,0.094,-0.988,192,0,0,0,0,0,0,0,0,0,0
 2023-06-24 15:09:28.992,-37109.39432,30106.10105,3035.366897,22592.09276,18869.745,-65091.61026,10479.12365,-58260.8054,-0.022,0.094,-0.988,192,0,0,0,0,0,0,0,0,0,0
 2023-06-24 15:09:28.992,-36858.11601,30010.30147,2914.19809,22547.23281,18753.69474,-64614.04289,10354.35621,-57997.68066,-0.022,0.094,-0.988,192,0,0,0,0,0,0,0,0,0,0
 2023-06-24 15:09:28.992,-36855.29969,28781.44727,1673.184535,21368.35711,17525.28757,-63610.82955,9121.389284,-57389.42264,-0.022,0.094,-0.988,192,0,0,0,0,0,0,0,0,0,0
 2023-06-24 15:09:28.992,-37093.97162,28401.86994,1314.729609,20951.31826,17167.79377,-63579.11242,8772.187981,-57349.1448,-0.022,0.094,-0.988,192,0,0,0,0,0,0,0,0,0,0
 2023-06-24 15:09:28.992,-37250.6797,29155.03432,2088.971685,21659.13095,17936.04558,-64459.63704,9546.385353,-57861.13386,-0.02,0.094,-0.99,192,255,96,2,240,225,16,0,0,0,0
 2023-06-24 15:09:28.992,-37114.64698,30077.69198,3014.13274,22578.74877,18847.63913,-65090.22446,10461.01874,-58256.78209,-0.02,0.094,-0.99,192,0,0,0,0,0,0,0,0,0,0
 2023-06-24 15:09:28.992,-36863.18986,29997.47157,2915.494492,22546.56226,18753.87356,-64626.82809,10361.62053,-58004.76617,-0.02,0.094,-0.99,192,0,0,0,0,0,0,0,0,0,0
 2023-06-24 15:09:28.992,-36853.01982,28803.55314,1710.333134,21385.76912,17558.32345,-63612.1483,9175.14523,-57391.88133,-0.02,0.094,-0.99,192,0,0,0,0,0,0,0,0,0,0
 2023-06-24 15:09:28.992,-37094.15044,28386.67075,1312.405027,20922.59627,17155.72383,-63559.50994,8771.964463,-57341.54521,-0.02,0.094,-0.99,192,0,0,0,0,0,0,0,0,0,0
 2023-06-24 15:09:28.992,-37262.30261,29075.73033,2020.441237,21566.97471,17857.12157,-64438.91697,9471.77523,-57855.72473,-0.02,0.094,-0.99,192,0,0,0,0,0,0,0,0,0,0
 2023-06-24 15:09:28.992,-37126.98515,30051.87572,2995.401978,22549.06566,18828.12605,-65080.23323,10433.32493,-58255.44098,-0.02,0.094,-0.99,192,0,0,0,0,0,0,0,0,0,0
 2023-06-24 15:09:28.992,-36874.6116,30000.95844,2920.21071,22549.08801,18758.63448,-64633.62302,10351.09286,-58010.17529,-0.02,0.094,-0.99,192,0,0,0,0,0,0,0,0,0,0
 2023-06-24 15:09:28.992,-36855.09853,28843.11573,1748.152286,21415.7428,17591.67225,-63614.83051,9189.472698,-57391.32254,-0.02,0.094,-0.99,192,0,0,0,0,0,0,0,0,0,0
 2023-06-24 15:09:28.992,-37089.30011,28424.91459,1348.234874,20957.50969,17196.71693,-63540.91329,8810.051836,-57326.0778,-0.02,0.094,-0.99,192,0,0,0,0,0,0,0,0,0,0
 2023-06-24 15:09:28.992,-37254.70302,29140.10336,2084.501336,21634.67814,17925.67437,-64406.03756,9528.682772,-57830.89195,-0.02,0.1,-0.986,192,255,96,3,32,225,48,0,0,0,0
 2023-06-24 15:09:28.992,-37129.62265,30081.26826,3018.558385,22577.45237,18855.55164,-65066.68807,10460.70581,-58245.13683,-0.02,0.1,-0.986,192,0,0,0,0,0,0,0,0,0,0
 2023-06-24 15:09:28.992,-36885.09457,29990.96721,2903.849233,22525.95395,18737.40032,-64645.78237,10341.66042,-58018.95952,-0.02,0.1,-0.986,192,0,0,0,0,0,0,0,0,0,0
 2023-06-24 15:09:28.992,-36870.85651,28784.17418,1685.947381,21350.9898,17523.25356,-63633.22599,9135.493235,-57406.92406,-0.02,0.1,-0.986,192,0,0,0,0,0,0,0,0,0,0
 2023-06-24 15:09:28.992,-37108.27674,28324.4435,1247.964948,20854.91518,17089.47326,-63543.01435,8693.107509,-57333.27506,-0.02,0.1,-0.986,192,0,0,0,0,0,0,0,0,0,0
 2023-06-24 15:09:28.992,-37270.84098,29088.7614,2031.594757,21581.54804,17870.9573,-64391.62068,9465.427335,-57826.68982,-0.02,0.1,-0.986,192,0,0,0,0,0,0,0,0,0,0
 2023-06-24 15:09:28.992,-37146.38646,30073.80278,3011.137606,22573.04908,18849.00258,-65060.18371,10447.40652,-58245.18153,-0.02,0.1,-0.986,192,0,0,0,0,0,0,0,0,0,0
 2023-06-24 15:09:28.992,-36899.24322,30005.96523,2918.489625,22548.46216,18758.43331,-64655.57243,10367.14141,-58029.5766,-0.02,0.1,-0.986,192,0,0,0,0,0,0,0,0,0,0
 2023-06-24 15:09:28.992,-36877.65144,28806.70474,1706.220413,21386.10439,17556.98235,-63639.23861,9173.22298,-57414.90363,-0.02,0.1,-0.986,192,0,0,0,0,0,0,0,0,0,0
 2023-06-24 15:09:28.992,-37110.64602,28355.60183,1276.418719,20901.11624,17125.97366,-63526.60817,8730.323163,-57325.09432,-0.02,0.1,-0.986,192,0,0,0,0,0,0,0,0,0,0
 2023-06-24 15:09:28.992,-37280.45223,29062.60986,2002.358675,21558.01166,17841.00596,-64374.67806,9437.465303,-57815.91628,-0.02,0.096,-0.988,192,255,96,3,0,225,32,0,0,0,0
 2023-06-24 15:09:28.993,-37160.08808,30041.72802,2974.436042,22538.22506,18812.83746,-65061.45776,10396.31044,-58243.03576,-0.02,0.096,-0.988,192,0,0,0,0,0,0,0,0,0,0
 2023-06-24 15:09:28.993,-36902.32776,30065.21971,2975.017187,22609.08009,18823.611,-64665.20603,10405.65347,-58029.06251,-0.02,0.096,-0.988,192,0,0,0,0,0,0,0,0,0,0
 2023-06-24 15:09:28.993,-36865.60385,28933.81911,1826.673964,21509.44132,17679.35815,-63637.89751,9272.688243,-57404.39831,-0.02,0.096,-0.988,192,0,0,0,0,0,0,0,0,0,0
 2023-06-24 15:09:28.993,-37100.90066,28423.08175,1331.336955,20967.34446,17190.52549,-63506.73747,8796.7749,-57304.88834,-0.02,0.096,-0.988,192,0,0,0,0,0,0,0,0,0,0
 2023-06-24 15:09:28.993,-37271.98091,29131.34147,2060.964949,21631.41479,17915.45962,-64343.40797,9526.335839,-57789.94355,-0.02,0.096,-0.988,192,0,0,0,0,0,0,0,0,0,0
 2023-06-24 15:09:28.993,-37161.33978,30079.94951,3005.817891,22582.45916,18860.49138,-65048.49375,10473.82629,-58230.16116,-0.02,0.096,-0.988,192,0,0,0,0,0,0,0,0,0,0
 2023-06-24 15:09:28.993,-36921.84084,30008.0663,2912.901689,22566.41061,18774.83949,-64686.39549,10366.91789,-58042.3171,-0.02,0.096,-0.988,192,0,0,0,0,0,0,0,0,0,0
 2023-06-24 15:09:28.993,-36878.03142,28917.83761,1809.887804,21503.76397,17667.847,-63656.51651,9269.670757,-57419.21752,-0.02,0.096,-0.988,192,0,0,0,0,0,0,0,0,0,0
 2023-06-24 15:09:28.993,-37107.8297,28409.04485,1321.166911,20956.79444,17171.81708,-63502.93767,8782.335673,-57306.36356,-0.02,0.096,-0.988,192,0,0,0,0,0,0,0,0,0,0
 2023-06-24 15:09:28.993,-37289.28116,29042.69445,1974.173126,21549.78622,17821.0235,-64338.46823,9426.624707,-57791.03879,-0.02,0.098,-0.992,192,255,96,3,16,225,0,0,0,0,0
 2023-06-24 15:09:28.993,-37182.70805,30020.06918,2949.022108,22513.16875,18784.33899,-65055.02046,10396.35514,-58235.1903,-0.02,0.098,-0.992,192,0,0,0,0,0,0,0,0,0,0
 2023-06-24 15:09:28.993,-36938.53759,29998.54445,2900.719988,22541.55547,18747.99505,-64707.38378,10369.84597,-58053.8953,-0.02,0.098,-0.992,192,0,0,0,0,0,0,0,0,0,0
 2023-06-24 15:09:28.993,-36894.4376,28871.05541,1755.707175,21464.22374,17615.61097,-63681.72928,9224.967268,-57436.07073,-0.02,0.098,-0.992,192,0,0,0,0,0,0,0,0,0,0
 2023-06-24 15:09:28.993,-37126.26989,28318.58734,1224.115637,20881.402,17077.29156,-63509.53144,8670.711061,-57314.76782,-0.02,0.098,-0.992,192,0,0,0,0,0,0,0,0,0,0
 2023-06-24 15:09:28.993,-37303.2063,29009.23389,1939.326756,21519.36549,17782.66791,-64327.56058,9384.804593,-57787.35075,-0.02,0.098,-0.992,192,0,0,0,0,0,0,0,0,0,0
 2023-06-24 15:09:28.993,-37202.86932,29979.81369,2906.084407,22482.12218,18752.13012,-65059.75903,10358.89362,-58239.97357,-0.02,0.098,-0.992,192,0,0,0,0,0,0,0,0,0,0
 2023-06-24 15:09:28.993,-36951.59101,30013.31896,2919.718971,22554.29596,18767.8434,-64725.77926,10368.63898,-58065.67467,-0.02,0.098,-0.992,192,0,0,0,0,0,0,0,0,0,0
 2023-06-24 15:09:28.993,-36895.71165,28938.2671,1835.100572,21521.4442,17684.5214,-63694.40272,9280.958388,-57441.54691,-0.02,0.098,-0.992,192,0,0,0,0,0,0,0,0,0,0
 2023-06-24 15:09:28.993,-37119.65378,28382.24511,1299.128091,20938.75658,17148.45951,-63498.22146,8746.282309,-57302.94374,-0.02,0.098,-0.992,192,0,0,0,0,0,0,0,0,0,0
 2023-06-24 15:09:28.993,-37305.57559,28989.13967,1921.087732,21501.26058,17769.61449,-64314.77539,9364.062174,-57776.13017,-0.018,0.094,-0.992,192,255,112,2,240,225,0,0,0,0,0
 2023-06-24 15:09:28.993,-37198.22016,30041.3704,2968.959864,22546.67402,18816.5255,-65048.96314,10406.77105,-58229.08827,-0.018,0.094,-0.992,192,0,0,0,0,0,0,0,0,0,0
 2023-06-24 15:09:28.993,-36943.96906,30098.14383,3008.36599,22643.74764,18858.03269,-64730.00374,10462.31514,-58063.19363,-0.018,0.094,-0.992,192,0,0,0,0,0,0,0,0,0,0
 2023-06-24 15:09:28.993,-36888.53674,28957.60136,1856.871171,21538.78916,17706.56022,-63707.38908,9298.526859,-57447.69364,-0.018,0.094,-0.992,192,0,0,0,0,0,0,0,0,0,0
 2023-06-24 15:09:28.993,-37115.07167,28361.12271,1274.049434,20910.43692,17123.82789,-63493.03585,8722.321239,-57299.90391,-0.018,0.094,-0.992,192,0,0,0,0,0,0,0,0,0,0
 2023-06-24 15:09:28.993,-37307.81076,28941.15048,1867.62236,21447.34817,17719.59129,-64301.20788,9319.42574,-57767.18947,-0.018,0.094,-0.992,192,0,0,0,0,0,0,0,0,0,0
 2023-06-24 15:09:28.993,-37209.6419,29977.53381,2903.42455,22463.41377,18743.65881,-65051.60064,10348.70122,-58227.85893,-0.018,0.094,-0.992,192,0,0,0,0,0,0,0,0,0,0
 2023-06-24 15:09:28.993,-36950.13815,30093.62878,2998.598277,22611.02469,18833.44577,-64745.40409,10440.96922,-58067.3734,-0.018,0.094,-0.992,192,0,0,0,0,0,0,0,0,0,0
 2023-06-24 15:09:28.993,-36885.09457,28992.15716,1878.351197,21561.85616,17723.39108,-63717.64853,9329.685191,-57448.94534,-0.018,0.094,-0.992,192,0,0,0,0,0,0,0,0,0,0
 2023-06-24 15:09:28.993,-37107.44972,28390.87288,1293.4731,20945.35034,17144.4809,-63480.45182,8758.821637,-57286.82813,-0.018,0.094,-0.992,192,0,0,0,0,0,0,0,0,0,0
 2023-06-24 15:09:28.993,-37293.93033,29019.71686,1945.40643,21523.12058,17787.47353,-64270.36247,9398.707378,-57743.47427,-0.02,0.094,-0.986,192,255,96,2,240,225,48,0,0,0,0
 2023-06-24 15:09:28.993,-37208.07728,30007.90984,2933.197073,22499.40008,18771.0397,-65036.91555,10382.07238,-58219.56643,-0.02,0.094,-0.986,192,0,0,0,0,0,0,0,0,0,0
 2023-06-24 15:09:28.993,-36948.01473,30155.74427,3064.424165,22684.45017,18905.70896,-64747.12518,10513.56769,-58070.05561,-0.02,0.094,-0.986,192,0,0,0,0,0,0,0,0,0,0
 2023-06-24 15:09:28.993,-36880.84774,29036.30186,1933.87293,21624.03871,17785.1266,-63722.78943,9379.708395,-57455.62851,-0.02,0.094,-0.986,192,0,0,0,0,0,0,0,0,0,0
 2023-06-24 15:09:28.993,-37108.05322,28372.38799,1285.135899,20951.27355,17141.79869,-63472.09227,8731.105474,-57286.82813,-0.02,0.094,-0.986,192,0,0,0,0,0,0,0,0,0,0
 2023-06-24 15:09:28.993,-37307.11786,28918.46346,1848.422211,21444.12952,17697.28425,-64262.29349,9303.086615,-57741.52967,-0.02,0.094,-0.986,192,0,0,0,0,0,0,0,0,0,0
 2023-06-24 15:09:28.993,-37218.35908,29972.66113,2900.518823,22484.31265,18746.20691,-65033.54043,10349.10355,-58214.09025,-0.02,0.094,-0.986,192,0,0,0,0,0,0,0,0,0,0
 2023-06-24 15:09:28.993,-36960.82228,30122.44017,3028.326098,22679.0187,18881.70318,-64763.19608,10479.7942,-58076.11294,-0.02,0.094,-0.986,192,0,0,0,0,0,0,0,0,0,0
 2023-06-24 15:09:29.472,-36879.28312,29085.92273,1973.301407,21681.43799,17829.80774,-63734.03236,9432.682029,-57457.93074,-0.02,0.094,-0.986,192,0,0,0,0,0,0,0,0,0,0
 2023-06-24 15:09:29.472,-37100.34187,28426.52392,1332.141618,20992.51252,17186.59159,-63460.93875,8786.604856,-57274.48997,-0.02,0.094,-0.986,192,0,0,0,0,0,0,0,0,0,0
 2023-06-24 15:09:29.472,-37291.51634,29009.39036,1938.767962,21532.41891,17789.39578,-64233.81737,9379.484878,-57717.4792,-0.02,0.094,-0.986,192,0,0,0,0,0,0,0,0,0,0
 2023-06-24 15:09:29.472,-37208.88194,30018.57162,2950.519675,22536.83925,18798.77821,-65022.14104,10390.7225,-58201.64033,-0.022,0.096,-0.982,192,255,80,3,0,225,80,0,0,0,0
 2023-06-24 15:09:29.472,-36959.90586,30105.63166,3020.659449,22660.4891,18870.28144,-64780.80926,10462.98569,-58081.4103,-0.022,0.096,-0.982,192,0,0,0,0,0,0,0,0,0,0
 2023-06-24 15:09:29.472,-36876.77972,29031.40682,1929.491988,21622.58585,17781.34916,-63757.5911,9377.875552,-57464.45745,-0.022,0.096,-0.982,192,0,0,0,0,0,0,0,0,0,0
 2023-06-24 15:09:29.472,-37087.55667,28394.96325,1305.319524,20961.4883,17159.34481,-63458.23419,8764.476629,-57263.80584,-0.022,0.096,-0.982,192,0,0,0,0,0,0,0,0,0,0
 2023-06-24 15:09:29.472,-37280.94396,28963.16695,1893.63979,21488.38597,17746.18986,-64220.00399,9354.696793,-57700.78244,-0.022,0.096,-0.982,192,0,0,0,0,0,0,0,0,0,0
 2023-06-24 15:09:29.472,-37205.28331,29966.71557,2895.288515,22492.94043,18747.30214,-65020.08468,10348.56711,-58193.86192,-0.022,0.096,-0.982,192,0,0,0,0,0,0,0,0,0,0
 2023-06-24 15:09:29.472,-36950.71929,30110.75021,3018.133702,22671.88849,18870.01322,-64790.66638,10472.08285,-58083.51136,-0.022,0.096,-0.982,192,0,0,0,0,0,0,0,0,0,0
 2023-06-24 15:09:29.472,-36862.34049,29023.42725,1917.131474,21624.08341,17772.60962,-63773.97493,9369.78422,-57476.058,-0.022,0.096,-0.982,192,0,0,0,0,0,0,0,0,0,0
 2023-06-24 15:09:29.472,-37076.02317,28321.13544,1231.20114,20890.56622,17081.96307,-63458.79298,8685.798488,-57267.09154,-0.022,0.096,-0.982,192,0,0,0,0,0,0,0,0,0,0
 2023-06-24 15:09:29.472,-37276.76419,28836.56667,1766.301902,21358.79056,17612.36997,-64215.13131,9223.804977,-57700.9389,-0.022,0.096,-0.982,192,0,0,0,0,0,0,0,0,0,0
 2023-06-24 15:09:29.472,-37191.62639,29925.65542,2852.999014,22456.6859,18707.24782,-65016.79898,10308.82571,-58190.50916,-0.016,0.09,-0.986,192,255,128,2,208,225,48,0,0,0,0
 2023-06-24 15:09:29.472,-36926.22178,30156.21366,3062.300749,22718.31306,18912.05685,-64797.05898,10519.46855,-58081.87969,-0.016,0.09,-0.986,192,0,0,0,0,0,0,0,0,0,0
 2023-06-24 15:09:29.472,-36827.27061,29110.15202,1999.676466,21714.63033,17852.83003,-63780.27812,9470.791754,-57473.48755,-0.016,0.09,-0.986,192,0,0,0,0,0,0,0,0,0,0
 2023-06-24 15:09:29.472,-37042.62966,28354.03721,1261.375995,20937.86251,17118.39642,-63450.36637,8710.608925,-57256.80974,-0.016,0.09,-0.986,192,0,0,0,0,0,0,0,0,0,0
 2023-06-24 15:09:29.472,-37240.48731,28891.55196,1820.504882,21411.36186,17665.3436,-64192.48899,9270.050737,-57680.75528,-0.016,0.09,-0.986,192,0,0,0,0,0,0,0,0,0,0
 2023-06-24 15:09:29.472,-37166.01129,29946.5543,2877.138898,22453.60135,18717.93195,-65010.56284,10315.33007,-58179.75797,-0.016,0.09,-0.986,192,0,0,0,0,0,0,0,0,0,0
 2023-06-24 15:09:29.472,-36908.58625,30143.47317,3052.242464,22702.80095,18902.71382,-64815.40976,10495.10515,-58086.48414,-0.016,0.09,-0.986,192,0,0,0,0,0,0,0,0,0,0
 2023-06-24 15:09:29.472,-36808.11516,29099.44553,1988.142966,21700.16875,17844.694,-63806.69788,9436.593585,-57482.85293,-0.016,0.09,-0.986,192,0,0,0,0,0,0,0,0,0,0
 2023-06-24 15:09:29.472,-37014.13119,28363.60375,1270.741376,20932.25222,17116.36241,-63448.62294,8712.911154,-57247.82434,-0.016,0.09,-0.986,192,0,0,0,0,0,0,0,0,0,0
 2023-06-24 15:09:29.472,-37209.70895,28900.33619,1832.060734,21416.59217,17667.86935,-64172.84181,9274.632844,-57661.1528,-0.016,0.09,-0.986,192,0,0,0,0,0,0,0,0,0,0
 2023-06-24 15:09:29.472,-37140.64206,29956.70199,2890.371131,22464.86663,18724.54807,-64999.69989,10331.17745,-58168.33623,-0.024,0.09,-0.986,192,255,64,2,208,225,48,0,0,0,0
 2023-06-24 15:09:29.472,-36889.54257,30166.78603,3079.265723,22721.75523,18921.51164,-64824.21634,10531.44908,-58088.58521,-0.024,0.09,-0.986,192,0,0,0,0,0,0,0,0,0,0
 2023-06-24 15:09:29.472,-36786.43397,29135.4989,2031.572405,21728.60017,17873.93008,-63818.58901,9497.39033,-57488.86555,-0.024,0.09,-0.986,192,0,0,0,0,0,0,0,0,0,0
 2023-06-24 15:09:29.472,-36994.46165,28357.1888,1267.992111,20928.743,17110.5733,-63443.10205,8745.65646,-57246.14796,-0.024,0.09,-0.986,192,0,0,0,0,0,0,0,0,0,0
 2023-06-24 15:09:29.472,-37208.14433,28791.63966,1722.112503,21322.1784,17567.3312,-64165.42103,9192.646646,-57661.48808,-0.024,0.09,-0.986,192,0,0,0,0,0,0,0,0,0,0
 2023-06-24 15:09:29.472,-37138.20572,29908.95866,2843.544226,22415.62574,18679.86693,-64996.34713,10292.37482,-58166.52574,-0.024,0.09,-0.986,192,0,0,0,0,0,0,0,0,0,0
 2023-06-24 15:09:29.472,-36879.88661,30170.45172,3086.798261,22713.93212,18923.16567,-64833.3135,10538.91457,-58091.82621,-0.024,0.09,-0.986,192,0,0,0,0,0,0,0,0,0,0
 2023-06-24 15:09:29.472,-36769.67016,29149.31228,2042.569464,21743.0841,17886.00002,-63833.36351,9502.687693,-57495.12404,-0.024,0.09,-0.986,192,0,0,0,0,0,0,0,0,0,0
 2023-06-24 15:09:29.472,-36969.58416,28391.63284,1297.988152,20972.28419,17148.01248,-63434.22841,8759.715707,-57236.84963,-0.024,0.09,-0.986,192,0,0,0,0,0,0,0,0,0,0
 2023-06-24 15:09:29.472,-37174.25909,28908.44988,1834.273557,21435.34528,17681.21334,-64131.98282,9285.942827,-57635.87298,-0.024,0.09,-0.986,192,0,0,0,0,0,0,0,0,0,0
 2023-06-24 15:09:29.472,-37115.45165,30010.7038,2934.426419,22507.9608,18771.39732,-64973.36954,10377.08794,-58151.97476,-0.024,0.096,-0.99,192,255,64,3,0,225,16,0,0,0,0
 2023-06-24 15:09:29.472,-36871.39295,30244.30188,3152.937073,22772.15842,18983.42597,-64835.19105,10600.71714,-58096.7436,-0.024,0.096,-0.99,192,0,0,0,0,0,0,0,0,0,0
 2023-06-24 15:09:29.472,-36768.23965,29197.48028,2091.564487,21778.77984,17925.36145,-63844.40527,9525.508824,-57508.64685,-0.024,0.096,-0.99,192,0,0,0,0,0,0,0,0,0,0
 2023-06-24 15:09:29.473,-36972.44519,28370.75631,1281.649027,20943.49515,17124.09611,-63430.2051,8710.877146,-57243.21988,-0.024,0.096,-0.99,192,0,0,0,0,0,0,0,0,0,0
 2023-06-24 15:09:29.473,-37182.50688,28834.15268,1764.714928,21366.72543,17606.89379,-64121.09752,9188.176297,-57636.16355,-0.024,0.096,-0.99,192,0,0,0,0,0,0,0,0,0,0
 2023-06-24 15:09:29.473,-37129.95793,29911.73028,2844.885331,22419.47024,18681.11863,-64976.767,10277.51091,-58156.08748,-0.024,0.096,-0.99,192,0,0,0,0,0,0,0,0,0,0
 2023-06-24 15:09:29.473,-36876.48915,30215.6246,3132.90991,22752.7571,18967.89151,-64852.40189,10572.79981,-58104.34319,-0.024,0.096,-0.99,192,0,0,0,0,0,0,0,0,0,0
 2023-06-24 15:09:29.473,-36758.0249,29252.55498,2148.986119,21827.05961,17981.71019,-63858.50923,9588.406633,-57512.58075,-0.024,0.096,-0.99,192,0,0,0,0,0,0,0,0,0,0
 2023-06-24 15:09:29.473,-36960.487,28420.80187,1328.319469,20976.41927,17164.06103,-63425.31007,8777.82062,-57236.08967,-0.024,0.096,-0.99,192,0,0,0,0,0,0,0,0,0,0
 2023-06-24 15:09:29.473,-37185.72553,28808.38112,1738.608091,21327.00638,17578.70824,-64110.14516,9179.280302,-57627.08874,-0.024,0.096,-0.99,192,0,0,0,0,0,0,0,0,0,0
 2023-06-24 15:09:29.473,-37140.19503,29886.3834,2820.991316,22394.0116,18660.59973,-64972.14019,10259.67422,-58151.97476,-0.022,0.094,-0.99,192,255,80,2,240,225,16,0,0,0,0
 2023-06-24 15:09:29.473,-36891.9342,30185.53915,3102.869165,22725.59973,18941.00236,-64868.80808,10544.07782,-58115.11673,-0.022,0.094,-0.99,192,0,0,0,0,0,0,0,0,0,0
 2023-06-24 15:09:29.473,-36769.469,29223.18479,2119.794741,21797.10827,17955.51395,-63883.72199,9569.050022,-57529.97041,-0.022,0.094,-0.99,192,0,0,0,0,0,0,0,0,0,0
 2023-06-24 15:09:29.473,-36954.07205,28453.88245,1363.277598,21003.95662,17193.07359,-63419.72213,8809.202469,-57231.50757,-0.022,0.094,-0.99,192,0,0,0,0,0,0,0,0,0,0
 2023-06-24 15:09:29.473,-37175.89076,28842.26636,1774.415585,21346.43004,17596.94726,-64088.50868,9217.121806,-57609.25205,-0.022,0.094,-0.99,192,0,0,0,0,0,0,0,0,0,0
 2023-06-24 15:09:29.473,-37140.68677,29885.75755,2821.661868,22379.61708,18643.14302,-64964.69706,10260.25537,-58141.35768,-0.022,0.094,-0.99,192,0,0,0,0,0,0,0,0,0,0
 2023-06-24 15:09:29.473,-36901.05371,30161.51102,3080.360959,22702.35392,18902.82558,-64886.26479,10499.75431,-58121.26346,-0.022,0.094,-0.99,192,0,0,0,0,0,0,0,0,0,0
 2023-06-24 15:09:29.473,-36772.46413,29239.56862,2138.078468,21837.47552,17975.407,-63902.49746,9568.021842,-57536.67593,-0.022,0.094,-0.99,192,0,0,0,0,0,0,0,0,0,0
 2023-06-24 15:09:29.473,-36958.96708,28417.315,1326.218406,20999.30745,17168.71019,-63422.49375,8770.13162,-57227.79718,-0.022,0.094,-0.99,192,0,0,0,0,0,0,0,0,0,0
 2023-06-24 15:09:29.473,-37177.18717,28838.98066,1769.408795,21362.14332,17603.27281,-64070.71669,9226.420131,-57594.05286,-0.022,0.094,-0.99,192,0,0,0,0,0,0,0,0,0,0
 2023-06-24 15:09:29.473,-37150.678,29839.37768,2773.3821,22338.62398,18604.85448,-64957.00806,10232.87448,-58134.85332,-0.024,0.098,-0.992,192,255,64,3,16,225,0,0,0,0,0
 2023-06-24 15:09:29.473,-36911.24611,30138.95811,3054.231769,22679.55514,18895.9636,-64895.16078,10506.57159,-58124.90679,-0.024,0.098,-0.992,192,0,0,0,0,0,0,0,0,0,0
 2023-06-24 15:09:29.473,-36784.847,29180.18003,2077.37113,21761.0549,17918.56652,-63925.13978,9523.497167,-57551.83042,-0.024,0.098,-0.992,192,0,0,0,0,0,0,0,0,0,0
 2023-06-24 15:09:29.473,-36969.20418,28342.92839,1254.581065,20898.38933,17088.98152,-63429.98158,8692.012273,-57236.02262,-0.024,0.098,-0.992,192,0,0,0,0,0,0,0,0,0,0
 2023-06-24 15:09:29.473,-37196.67789,28705.54074,1639.791028,21216.58876,17470.74932,-64071.90133,9073.15422,-57598.85849,-0.024,0.098,-0.992,192,0,0,0,0,0,0,0,0,0,0
 2023-06-24 15:09:29.473,-37169.65463,29764.83461,2703.398788,22255.54255,18532.68069,-64959.51145,10128.98357,-58136.75322,-0.024,0.098,-0.992,192,0,0,0,0,0,0,0,0,0,0
 2023-06-24 15:09:29.473,-36921.79613,30147.09415,3063.485392,22677.34232,18902.02092,-64909.26473,10498.12263,-58128.08074,-0.024,0.098,-0.992,192,0,0,0,0,0,0,0,0,0,0
 2023-06-24 15:09:29.473,-36778.36499,29276.60546,2173.438927,21844.22575,18018.70233,-63937.0309,9628.885642,-57550.13168,-0.024,0.098,-0.992,192,0,0,0,0,0,0,0,0,0,0
 2023-06-24 15:09:29.473,-36953.22269,28424.57931,1331.649879,20987.97512,17182.43416,-63419.63272,8784.86142,-57220.59992,-0.024,0.098,-0.992,192,0,0,0,0,0,0,0,0,0,0
 2023-06-24 15:09:29.473,-37185.63613,28728.69715,1656.174857,21252.30685,17505.19335,-64051.0248,9102.122081,-57579.30071,-0.024,0.098,-0.992,192,0,0,0,0,0,0,0,0,0,0
 2023-06-24 15:09:29.473,-37162.16679,29800.64211,2733.037202,22300.69307,18580.28991,-64942.1218,10175.54226,-58119.52002,-0.022,0.098,-0.99,192,255,80,3,16,225,16,0,0,0,0
 2023-06-24 15:09:29.473,-36919.62801,30167.88127,3082.104395,22700.1858,18928.6195,-64914.94208,10518.1498,-58127.589,-0.022,0.098,-0.99,192,0,0,0,0,0,0,0,0,0,0
 2023-06-24 15:09:29.473,-36788.02094,29223.60947,2117.73838,21794.02373,17965.39342,-63963.51772,9562.188037,-57567.25312,-0.022,0.098,-0.99,192,0,0,0,0,0,0,0,0,0,0
 2023-06-24 15:09:29.473,-36966.14199,28338.5698,1241.997032,20892.86845,17091.01553,-63432.66379,8694.582724,-57230.56879,-0.022,0.098,-0.99,192,0,0,0,0,0,0,0,0,0,0
 2023-06-24 15:09:29.473,-37188.18422,28715.04023,1636.952357,21234.64897,17490.93294,-64041.57001,9077.713976,-57572.37167,-0.022,0.098,-0.99,192,0,0,0,0,0,0,0,0,0,0
 2023-06-24 15:09:29.473,-37164.78195,29797.75873,2723.984745,22295.55217,18576.87009,-64936.75738,10159.4937,-58113.70857,-0.022,0.098,-0.99,192,0,0,0,0,0,0,0,0,0,0
 2023-06-24 15:09:29.473,-36917.61636,30215.98222,3129.333631,22734.38397,18969.74671,-64922.80989,10559.09819,-58127.96898,-0.022,0.098,-0.99,192,0,0,0,0,0,0,0,0,0,0
 2023-06-24 15:09:29.473,-36761.89175,29418.40493,2313.13733,21981.62192,18153.59511,-63962.28838,9744.153588,-57558.22302,-0.022,0.098,-0.99,192,0,0,0,0,0,0,0,0,0,0
 2023-06-24 15:09:29.473,-36944.10317,28442.79599,1348.123115,21000.4921,17191.2184,-63421.64438,8783.319149,-57218.63296,-0.022,0.098,-0.99,192,0,0,0,0,0,0,0,0,0,0
 2023-06-24 15:09:29.473,-37176.49426,28746.77971,1674.547991,21257.20188,17510.11074,-64022.45927,9093.807232,-57558.67005,-0.022,0.098,-0.99,192,0,0,0,0,0,0,0,0,0,0
 2023-06-24 15:09:29.473,-37161.20567,29833.11919,2763.994368,22321.10021,18598.81951,-64923.97218,10178.00095,-58104.4326,-0.022,0.098,-0.99,192,255,80,3,16,225,16,0,0,0,0
 2023-06-24 15:09:29.473,-36913.88362,30285.85378,3197.908783,22807.85415,19035.30437,-64924.37451,10616.2069,-58129.60066,-0.022,0.098,-0.99,192,0,0,0,0,0,0,0,0,0,0
 2023-06-24 15:09:29.473,-36767.09971,29411.38648,2302.699066,21990.69673,18147.44838,-63981.80145,9736.956327,-57575.99265,-0.022,0.098,-0.99,192,0,0,0,0,0,0,0,0,0,0
 2023-06-24 15:09:29.473,-36941.55508,28455.06709,1357.488496,21025.63781,17200.44967,-63418.87276,8801.826394,-57221.20341,-0.022,0.098,-0.99,192,0,0,0,0,0,0,0,0,0,0
 2023-06-24 15:09:29.473,-37173.45442,28743.35989,1665.56259,21265.8073,17511.94358,-64006.2319,9115.95781,-57551.5622,-0.022,0.098,-0.99,192,0,0,0,0,0,0,0,0,0,0
 2023-06-24 15:09:29.473,-37170.83927,29763.53821,2690.501832,22264.48324,18538.76037,-64918.42895,10135.62204,-58104.00791,-0.022,0.098,-0.99,192,0,0,0,0,0,0,0,0,0,0
 2023-06-24 15:09:29.473,-36926.66881,30223.82769,3136.419134,22748.89025,18976.87691,-64940.06544,10572.21867,-58139.16721,-0.022,0.098,-0.99,192,0,0,0,0,0,0,0,0,0,0
 2023-06-24 15:09:29.473,-36765.28922,29443.19301,2339.78061,22016.26712,18179.8137,-63996.88888,9778.865847,-57581.96057,-0.022,0.098,-0.99,192,0,0,0,0,0,0,0,0,0,0
 2023-06-24 15:09:29.473,-36937.39765,28459.67155,1366.786822,21044.03329,17220.7227,-63416.27996,8810.700036,-57218.96824,-0.022,0.098,-0.99,192,0,0,0,0,0,0,0,0,0,0
 2023-06-24 15:09:29.473,-37173.745,28718.05772,1649.022299,21252.35155,17498.64429,-63991.30094,9094.746005,-57543.94025,-0.022,0.098,-0.99,192,0,0,0,0,0,0,0,0,0,0
 2023-06-24 15:09:29.473,-37164.96076,29807.30293,2746.783524,22301.14011,18586.45899,-64901.28516,10190.27206,-58092.49676,-0.018,0.098,-0.988,192,255,112,3,16,225,32,0,0,0,0
 2023-06-24 15:09:29.473,-36923.8972,30266.58657,3189.325713,22782.93196,19024.53083,-64945.18399,10627.53923,-58141.35768,-0.018,0.098,-0.988,192,0,0,0,0,0,0,0,0,0,0
 2023-06-24 15:09:29.473,-36761.91411,29483.24734,2379.432604,22064.09986,18222.68435,-64013.74209,9816.327371,-57591.41536,-0.018,0.098,-0.988,192,0,0,0,0,0,0,0,0,0,0
 2023-06-24 15:09:29.473,-36928.47931,28487.72299,1391.038464,21070.05072,17241.12984,-63409.52973,8838.706772,-57213.71558,-0.018,0.098,-0.988,192,0,0,0,0,0,0,0,0,0,0
 2023-06-24 15:09:29.473,-37169.52052,28699.08109,1624.793008,21235.85597,17475.19731,-63969.93267,9085.850011,-57531.62444,-0.018,0.098,-0.988,192,0,0,0,0,0,0,0,0,0,0
 2023-06-24 15:09:29.473,-37173.94616,29735.44207,2671.324035,22248.05471,18518.06265,-64890.73514,10116.19837,-58086.5959,-0.018,0.098,-0.988,192,0,0,0,0,0,0,0,0,0,0
 2023-06-24 15:09:29.473,-36937.73293,30203.93463,3125.667945,22738.89902,18968.47266,-64954.70583,10558.69586,-58147.54911,-0.018,0.098,-0.988,192,0,0,0,0,0,0,0,0,0,0
 2023-06-24 15:09:29.473,-36773.4029,29435.19109,2338.171284,22019.57518,18180.55131,-64034.9539,9782.978568,-57606.41338,-0.018,0.098,-0.988,192,0,0,0,0,0,0,0,0,0,0
 2023-06-24 15:09:29.473,-36930.66978,28468.50049,1380.197868,21059.14307,17230.98215,-63406.73577,8827.262679,-57211.99449,-0.018,0.098,-0.988,192,0,0,0,0,0,0,0,0,0,0
 2023-06-24 15:09:29.473,-37166.77125,28725.97024,1656.912465,21273.58571,17505.97566,-63948.60911,9098.121118,-57513.63129,-0.018,0.098,-0.988,192,0,0,0,0,0,0,0,0,0,0
 2023-06-24 15:09:29.473,-37174.3932,29780.65965,2719.782617,22296.28978,18564.0849,-64873.25607,10159.449,-58069.98856,-0.018,0.092,-0.99,192,255,112,2,224,225,16,0,0,0,0
 2023-06-24 15:09:29.473,-36942.04681,30253.66727,3174.841782,22794.309,19024.79905,-64954.83994,10619.96199,-58142.38586,-0.018,0.092,-0.99,192,0,0,0,0,0,0,0,0,0,0
 2023-06-24 15:09:29.473,-36776.35333,29479.35813,2376.325712,22067.09499,18232.2956,-64049.1249,9837.561528,-57611.35311,-0.018,0.092,-0.99,192,0,0,0,0,0,0,0,0,0,0
 2023-06-24 15:09:29.473,-36929.06045,28506.92314,1410.752703,21077.00212,17265.22502,-63402.48894,8878.537581,-57206.76419,-0.018,0.092,-0.99,192,0,0,0,0,0,0,0,0,0,0
 2023-06-24 15:09:29.473,-37172.35919,28703.66319,1632.034973,21232.39144,17481.58991,-63933.94636,9087.191115,-57505.67406,-0.018,0.092,-0.99,192,0,0,0,0,0,0,0,0,0,0
 2023-06-24 15:09:29.473,-37189.61474,29734.77152,2672.173401,22247.8312,18524.36585,-64866.08116,10119.88641,-58067.59692,-0.018,0.092,-0.99,192,0,0,0,0,0,0,0,0,0,0
 2023-06-24 15:09:29.473,-36951.14397,30274.85672,3197.171175,22809.7764,19045.04973,-64961.74663,10644.10188,-58146.0739,-0.018,0.092,-0.99,192,0,0,0,0,0,0,0,0,0,0
 2023-06-24 15:09:29.473,-36782.72358,29510.02473,2412.736703,22090.76549,18265.48794,-64067.22982,9885.841296,-57621.59021,-0.018,0.092,-0.99,192,0,0,0,0,0,0,0,0,0,0
 2023-06-24 15:09:29.473,-36932.43556,28511.39349,1421.928575,21095.21879,17282.8829,-63404.43354,8893.580305,-57207.83707,-0.018,0.092,-0.99,192,0,0,0,0,0,0,0,0,0,0
 2023-06-24 15:09:29.473,-37172.15802,28726.28316,1656.331319,21265.65084,17514.87166,-63917.38372,9121.59045,-57493.91705,-0.018,0.092,-0.99,192,0,0,0,0,0,0,0,0,0,0
 2023-06-24 15:09:29.473,-37192.87809,29773.50709,2710.350181,22289.80777,18567.14708,-64851.41842,10166.60156,-58056.06342,-0.018,0.092,-0.986,192,255,112,2,224,225,48,0,0,0,0
 2023-06-24 15:09:29.473,-36963.01275,30293.94511,3215.43255,22845.40508,19075.29164,-64968.78743,10671.371,-58151.05833,-0.018,0.092,-0.986,192,0,0,0,0,0,0,0,0,0,0
 2023-06-24 15:09:29.473,-36797.81101,29519.03248,2420.24689,22115.06183,18278.4743,-64089.24628,9882.019148,-57639.91864,-0.018,0.092,-0.986,192,0,0,0,0,0,0,0,0,0,0
 2023-06-24 15:09:29.473,-36943.23146,28526.9503,1436.166636,21121.0127,17296.09278,-63407.02634,8901.425767,-57216.08486,-0.018,0.092,-0.986,192,0,0,0,0,0,0,0,0,0,0
 2023-06-24 15:09:29.473,-37184.60795,28724.00328,1650.989252,21280.22418,17516.12336,-63905.67141,9120.830491,-57494.49819,-0.018,0.092,-0.986,192,0,0,0,0,0,0,0,0,0,0
 2023-06-24 15:09:29.473,-37208.09963,29773.39533,2709.94785,22296.24507,18566.90121,-64842.36596,10172.81534,-58056.75632,-0.018,0.092,-0.986,192,0,0,0,0,0,0,0,0,0,0
 2023-06-24 15:09:29.473,-36972.17697,30361.60384,3284.342979,22908.72758,19142.50334,-64969.39093,10753.82659,-58154.74637,-0.018,0.092,-0.986,192,0,0,0,0,0,0,0,0,0,0
 2023-06-24 15:09:29.473,-36799.26387,29617.62603,2515.755894,22222.68548,18382.76754,-64099.63984,9988.100527,-57649.32873,-0.018,0.092,-0.986,192,0,0,0,0,0,0,0,0,0,0
 2023-06-24 15:09:29.473,-36942.13622,28599.72758,1500.517309,21203.6471,17368.04305,-63403.78534,8972.526666,-57217.42597,-0.018,0.092,-0.986,192,0,0,0,0,0,0,0,0,0,0
 2023-06-24 15:09:29.473,-37187.08899,28758.29086,1678.236029,21311.58368,17543.41484,-63886.09128,9150.155979,-57487.52445,-0.018,0.092,-0.986,192,0,0,0,0,0,0,0,0,0,0
 2023-06-24 15:09:29.473,-37220.43779,29781.66548,2708.986724,22302.59297,18575.10431,-64826.85385,10185.22056,-58054.16352,-0.012,0.094,-0.988,192,255,160,2,240,225,32,0,0,0,0
 2023-06-24 15:09:29.473,-37000.8319,30291.9111,3206.424797,22836.84437,19073.21293,-64984.27719,10671.3263,-58174.70648,-0.012,0.094,-0.988,192,0,0,0,0,0,0,0,0,0,0
 2023-06-24 15:09:29.473,-36823.73903,29584.99248,2480.015454,22175.94799,18347.92117,-64125.81374,9937.674992,-57677.02254,-0.012,0.094,-0.988,192,0,0,0,0,0,0,0,0,0,0
 2023-06-24 15:09:29.473,-36956.17312,28584.99778,1485.116957,21170.85709,17353.82734,-63408.16628,8972.05728,-57232.17812,-0.012,0.094,-0.988,192,0,0,0,0,0,0,0,0,0,0
 2023-06-24 15:09:29.474,-37200.81296,28725.85848,1647.345918,21257.49245,17508.56847,-63872.65788,9140.075343,-57491.74893,-0.012,0.094,-0.988,192,0,0,0,0,0,0,0,0,0,0
 2023-06-24 15:09:29.474,-37235.68168,29765.16989,2695.86625,22277.46961,18563.03436,-64813.37575,10169.99902,-58056.73397,-0.012,0.094,-0.988,192,0,0,0,0,0,0,0,0,0,0
 2023-06-24 15:09:29.474,-37011.35957,30329.99847,3242.366402,22888.92393,19121.98444,-64983.62899,10720.0531,-58182.08256,-0.012,0.094,-0.988,192,0,0,0,0,0,0,0,0,0,0
 2023-06-24 15:09:29.951,-36827.11414,29667.60453,2561.532266,22268.28304,18438.42339,-64135.53675,10038.95075,-57688.31017,-0.012,0.094,-0.988,192,0,0,0,0,0,0,0,0,0,0
 2023-06-24 15:09:29.951,-36962.25279,28607.97538,1508.765102,21208.11745,17386.28207,-63409.88736,8983.054338,-57236.82728,-0.012,0.094,-0.988,192,0,0,0,0,0,0,0,0,0,0
 2023-06-24 15:09:29.951,-37214.69339,28684.30658,1605.72697,21228.99398,17472.49275,-63864.00775,9083.65954,-57490.22901,-0.012,0.094,-0.988,192,0,0,0,0,0,0,0,0,0,0
 2023-06-24 15:09:29.951,-37258.9722,29690.04568,2620.183244,22202.68067,18484.91502,-64810.17945,10106.85535,-58059.86322,-0.016,0.094,-0.986,192,255,128,2,240,225,48,0,0,0,0
 2023-06-24 15:09:29.951,-37038.51694,30276.24253,3190.599762,22823.23215,19062.23822,-64999.07404,10677.92006,-58197.66172,-0.016,0.094,-0.986,192,0,0,0,0,0,0,0,0,0,0
 2023-06-24 15:09:29.951,-36853.75742,29602.51625,2497.941553,22204.13353,18372.88807,-64165.39868,9986.625312,-57715.13226,-0.016,0.094,-0.986,192,0,0,0,0,0,0,0,0,0,0
 2023-06-24 15:09:29.951,-36978.03312,28582.6285,1488.290905,21187.41973,17359.34822,-63418.24692,8962.423678,-57251.0877,-0.016,0.094,-0.986,192,0,0,0,0,0,0,0,0,0,0
 2023-06-24 15:09:29.951,-37213.88873,28762.13536,1690.954172,21311.36016,17549.51686,-63840.49372,9150.871235,-57483.50113,-0.016,0.094,-0.986,192,0,0,0,0,0,0,0,0,0,0
 2023-06-24 15:09:29.951,-37257.98872,29775.5411,2712.764169,22298.61436,18572.84678,-64784.76552,10177.44215,-58050.96722,-0.016,0.094,-0.986,192,0,0,0,0,0,0,0,0,0,0
 2023-06-24 15:09:29.951,-37044.59662,30329.48438,3251.642376,22881.61491,19120.86685,-64998.04586,10722.73531,-58205.19426,-0.016,0.094,-0.986,192,0,0,0,0,0,0,0,0,0,0
 2023-06-24 15:09:29.951,-36861.75935,29648.22556,2551.026946,22248.32293,18419.84909,-64180.12848,10024.95855,-57734.64534,-0.016,0.094,-0.986,192,0,0,0,0,0,0,0,0,0,0
 2023-06-24 15:09:29.951,-36991.53358,28546.53043,1454.606826,21148.23713,17325.97707,-63425.35477,8944.408172,-57267.87386,-0.016,0.094,-0.986,192,0,0,0,0,0,0,0,0,0,0
 2023-06-24 15:09:29.951,-37235.70403,28645.19103,1576.110909,21189.81137,17437.75814,-63838.07973,9060.167856,-57495.2358,-0.016,0.094,-0.986,192,0,0,0,0,0,0,0,0,0,0
 2023-06-24 15:09:29.951,-37285.57077,29654.86403,2597.004485,22167.32021,18453.06378,-64781.88214,10069.66204,-58059.01385,-0.018,0.094,-0.988,192,255,112,2,240,225,32,0,0,0,0
 2023-06-24 15:09:29.951,-37062.52272,30327.7633,3254.436344,22875.87051,19116.30709,-65001.28686,10708.45255,-58210.33516,-0.018,0.094,-0.988,192,0,0,0,0,0,0,0,0,0,0
 2023-06-24 15:09:29.951,-36872.0635,29687.8105,2586.297999,22301.83301,18463.27853,-64192.55605,10058.8438,-57743.09429,-0.018,0.094,-0.988,192,0,0,0,0,0,0,0,0,0,0
 2023-06-24 15:09:29.951,-36994.59577,28575.72181,1478.925524,21186.25744,17355.39196,-63422.89608,8962.043698,-57267.94091,-0.018,0.094,-0.988,192,0,0,0,0,0,0,0,0,0,0
 2023-06-24 15:09:29.951,-37248.53393,28590.54102,1516.923489,21151.92516,17386.6397,-63827.82028,8989.715158,-57494.05116,-0.018,0.094,-0.988,192,0,0,0,0,0,0,0,0,0,0
 2023-06-24 15:09:29.951,-37300.27822,29620.57646,2560.571141,22136.05012,18422.91128,-64772.65087,10020.84583,-58060.01968,-0.018,0.094,-0.988,192,0,0,0,0,0,0,0,0,0,0
 2023-06-24 15:09:29.951,-37079.73356,30296.42615,3226.071981,22828.50716,19080.52195,-65012.6639,10686.6596,-58225.06496,-0.018,0.094,-0.988,192,0,0,0,0,0,0,0,0,0,0
 2023-06-24 15:09:29.951,-36879.19371,29714.09615,2623.692468,22297.60853,18479.99763,-64212.38204,10085.88941,-57762.3615,-0.018,0.094,-0.988,192,0,0,0,0,0,0,0,0,0,0
 2023-06-24 15:09:29.951,-36994.77458,28601.02398,1516.096475,21195.62283,17371.64168,-63424.08072,8977.131126,-57274.2441,-0.018,0.094,-0.988,192,0,0,0,0,0,0,0,0,0,0
 2023-06-24 15:09:29.951,-37246.187,28619.97826,1550.786382,21171.34883,17411.24897,-63806.09438,9018.683019,-57483.72465,-0.018,0.094,-0.988,192,0,0,0,0,0,0,0,0,0,0
 2023-06-24 15:09:29.951,-37308.12368,29612.30631,2546.623653,22132.67501,18413.76941,-64755.61884,10020.55526,-58050.07315,-0.018,0.098,-0.986,192,255,112,3,16,225,48,0,0,0,0
 2023-06-24 15:09:29.951,-37098.10669,30278.32124,3202.49089,22818.82886,19061.70178,-65019.7047,10658.69756,-58229.73647,-0.018,0.098,-0.986,192,0,0,0,0,0,0,0,0,0,0
 2023-06-24 15:09:29.951,-36905.99345,29661.41309,2564.594455,22254.02263,18422.66541,-64242.75806,10026.21025,-57785.45085,-0.018,0.098,-0.986,192,0,0,0,0,0,0,0,0,0,0
 2023-06-24 15:09:29.951,-37017.21573,28567.07168,1472.778794,21165.29151,17330.62623,-63440.03987,8940.697782,-57289.59975,-0.018,0.098,-0.986,192,0,0,0,0,0,0,0,0,0,0
 2023-06-24 15:09:29.951,-37270.70686,28563.20483,1490.369617,21116.31884,17345.6019,-63807.72606,8945.79398,-57492.19596,-0.018,0.098,-0.986,192,0,0,0,0,0,0,0,0,0,0
 2023-06-24 15:09:29.951,-37338.67852,29523.83811,2462.692852,22049.75004,18324.49655,-64758.50222,9920.86648,-58060.35496,-0.018,0.098,-0.986,192,0,0,0,0,0,0,0,0,0,0
 2023-06-24 15:09:29.951,-37122.60421,30249.50984,3178.261599,22804.32258,19045.2956,-65033.31691,10633.61891,-58243.86278,-0.018,0.098,-0.986,192,0,0,0,0,0,0,0,0,0,0
 2023-06-24 15:09:29.951,-36916.87875,29699.2993,2612.538947,22304.31405,18476.77898,-64261.80175,10056.47451,-57800.89591,-0.018,0.098,-0.986,192,0,0,0,0,0,0,0,0,0,0
 2023-06-24 15:09:29.951,-37024.07772,28565.10473,1483.127652,21167.39257,17344.75253,-63445.6278,8935.28866,-57299.2557,-0.018,0.098,-0.986,192,0,0,0,0,0,0,0,0,0,0
 2023-06-24 15:09:29.951,-37267.33175,28636.71972,1569.71831,21200.83078,17435.90295,-63785.06139,9010.032893,-57479.9025,-0.018,0.098,-0.986,192,0,0,0,0,0,0,0,0,0,0
 2023-06-24 15:09:29.951,-37341.02545,29592.03328,2533.637289,22134.61961,18401.83358,-64736.97749,9979.092774,-58047.10037,-0.018,0.092,-0.99,192,255,112,2,224,225,16,0,0,0,0
 2023-06-24 15:09:29.951,-37138.69746,30261.33391,3190.353893,22828.97655,19065.65804,-65036.62497,10640.63735,-58248.51194,-0.018,0.092,-0.99,192,0,0,0,0,0,0,0,0,0,0
 2023-06-24 15:09:29.951,-36926.22178,29776.1893,2682.052872,22383.05925,18556.4853,-64272.10591,10138.57247,-57808.74137,-0.018,0.092,-0.99,192,0,0,0,0,0,0,0,0,0,0
 2023-06-24 15:09:29.951,-37026.58111,28645.72747,1551.814562,21251.0775,17417.351,-63441.60449,9005.584896,-57297.62403,-0.018,0.092,-0.99,192,0,0,0,0,0,0,0,0,0,0
 2023-06-24 15:09:29.951,-37274.97605,28638.48551,1567.840763,21194.97462,17422.91658,-63768.78932,9008.602382,-57473.08522,-0.018,0.092,-0.99,192,0,0,0,0,0,0,0,0,0,0
 2023-06-24 15:09:29.951,-37352.08957,29581.43855,2526.037696,22097.35925,18370.27292,-64717.37501,9952.963585,-58038.15967,-0.018,0.092,-0.99,192,0,0,0,0,0,0,0,0,0,0
 2023-06-24 15:09:29.951,-37143.92777,30328.14328,3258.280844,22860.4031,19101.55494,-65026.87961,10694.79563,-58243.88513,-0.018,0.092,-0.99,192,0,0,0,0,0,0,0,0,0,0
 2023-06-24 15:09:29.951,-36935.18483,29815.26015,2722.733047,22392.96107,18568.30937,-64281.73951,10154.19634,-57818.24086,-0.018,0.092,-0.99,192,0,0,0,0,0,0,0,0,0,0
 2023-06-24 15:09:29.951,-37041.51208,28623.86747,1533.284966,21210.0844,17377.11786,-63445.29253,8968.503352,-57305.80477,-0.018,0.092,-0.99,192,0,0,0,0,0,0,0,0,0,0
 2023-06-24 15:09:29.951,-37297.73012,28583.79079,1515.984716,21130.17692,17363.59505,-63757.97108,8961.68607,-57472.01234,-0.018,0.092,-0.99,192,0,0,0,0,0,0,0,0,0,0
 2023-06-24 15:09:29.951,-37377.21293,29556.67282,2500.221431,22073.75581,18347.00475,-64702.5558,9936.11037,-58032.86231,-0.022,0.094,-0.984,192,255,80,2,240,225,64,0,0,0,0
 2023-06-24 15:09:29.951,-37174.88494,30295.64384,3226.340202,22825.57909,19069.07786,-65034.09923,10659.1893,-58251.99881,-0.022,0.094,-0.984,192,0,0,0,0,0,0,0,0,0,0
 2023-06-24 15:09:29.951,-36958.58711,29829.43116,2734.959452,22412.96588,18583.59797,-64301.20788,10167.94266,-57834.40117,-0.022,0.094,-0.984,192,0,0,0,0,0,0,0,0,0,0
 2023-06-24 15:09:29.951,-37050.98922,28687.30172,1592.494737,21289.70132,17450.81156,-63445.44899,9032.563452,-57309.31399,-0.022,0.094,-0.984,192,0,0,0,0,0,0,0,0,0,0
 2023-06-24 15:09:29.951,-37310.04593,28596.68775,1526.15476,21155.68026,17380.31416,-63744.06829,8960.993166,-57468.77133,-0.022,0.094,-0.984,192,0,0,0,0,0,0,0,0,0,0
 2023-06-24 15:09:29.951,-37392.59093,29560.22675,2502.724827,22092.06189,18357.01833,-64686.99899,9933.606974,-58029.39779,-0.022,0.094,-0.984,192,0,0,0,0,0,0,0,0,0,0
 2023-06-24 15:09:29.951,-37201.88584,30252.7732,3185.749434,22808.92704,19035.0585,-65042.10115,10607.93675,-58264.31462,-0.022,0.094,-0.984,192,0,0,0,0,0,0,0,0,0,0
 2023-06-24 15:09:29.951,-36986.68325,29788.48276,2701.074207,22389.49655,18550.60679,-64329.19226,10127.10603,-57858.27283,-0.022,0.094,-0.984,192,0,0,0,0,0,0,0,0,0,0
 2023-06-24 15:09:29.951,-37067.99889,28660.72549,1570.925304,21280.58181,17429.28683,-63458.88239,9006.814242,-57324.49082,-0.022,0.094,-0.984,192,0,0,0,0,0,0,0,0,0,0
 2023-06-24 15:09:29.951,-37320.73007,28562.28841,1493.454158,21139.49759,17349.4911,-63735.48522,8932.561747,-57470.2689,-0.022,0.094,-0.984,192,0,0,0,0,0,0,0,0,0,0
 2023-06-24 15:09:29.951,-37407.85717,29469.72453,2416.91648,22006.92409,18264.45976,-64679.33234,9848.536235,-58028.95075,-0.022,0.092,-0.99,192,255,80,2,224,225,16,0,0,0,0
 2023-06-24 15:09:29.951,-37207.25026,30258.96463,3194.131338,22813.55385,19043.64157,-65039.62011,10633.28363,-58264.02405,-0.022,0.092,-0.99,192,0,0,0,0,0,0,0,0,0,0
 2023-06-24 15:09:29.951,-36983.33049,29871.51949,2784.714435,22469.94048,18642.74068,-64333.39439,10228.15826,-57861.0668,-0.022,0.092,-0.99,192,0,0,0,0,0,0,0,0,0,0
 2023-06-24 15:09:29.951,-37061.0475,28728.7642,1642.24972,21328.66041,17498.01844,-63452.51214,9092.667293,-57319.81931,-0.022,0.092,-0.99,192,0,0,0,0,0,0,0,0,0,0
 2023-06-24 15:09:29.951,-37314.80686,28623.91217,1560.442336,21178.6802,17412.23245,-63708.70783,9004.243792,-57455.4497,-0.022,0.092,-0.99,192,0,0,0,0,0,0,0,0,0,0
 2023-06-24 15:09:29.951,-37398.78236,29600.07991,2551.183409,22132.36208,18400.93951,-64640.21678,9971.381422,-58006.62136,-0.022,0.092,-0.99,192,0,0,0,0,0,0,0,0,0,0
 2023-06-24 15:09:29.951,-37210.9383,30325.46107,3266.841563,22858.88319,19104.9077,-65026.72315,10685.89964,-58257.07266,-0.022,0.092,-0.99,192,0,0,0,0,0,0,0,0,0,0
 2023-06-24 15:09:29.951,-36990.34893,29901.78375,2818.890252,22486.21255,18669.13809,-64343.31856,10248.18543,-57869.13578,-0.022,0.092,-0.99,192,0,0,0,0,0,0,0,0,0,0
 2023-06-24 15:09:29.952,-37066.81425,28717.00719,1629.978613,21324.10065,17483.69098,-63455.88725,9050.869531,-57325.83193,-0.022,0.092,-0.99,192,0,0,0,0,0,0,0,0,0,0
 2023-06-24 15:09:29.952,-37319.12074,28603.59443,1538.537626,21158.07189,17383.24224,-63690.80409,8958.86975,-57445.59258,-0.022,0.092,-0.99,192,0,0,0,0,0,0,0,0,0,0
 2023-06-24 15:09:29.952,-37412.57339,29529.44839,2478.719053,22039.55764,18314.08063,-64622.71537,9894.312608,-57996.65248,-0.018,0.086,-0.988,192,255,112,2,176,225,32,0,0,0,0
 2023-06-24 15:09:29.952,-37221.48832,30335.78757,3277.369234,22859.93372,19109.60157,-65019.0565,10685.16203,-58252.08822,-0.018,0.086,-0.988,192,0,0,0,0,0,0,0,0,0,0
 2023-06-24 15:09:29.952,-37005.21284,29922.12384,2842.270177,22494.4827,18677.74352,-64354.36032,10257.5061,-57874.99194,-0.018,0.086,-0.988,192,0,0,0,0,0,0,0,0,0,0
 2023-06-24 15:09:29.952,-37075.55378,28750.93713,1671.932837,21344.61955,17511.54125,-63456.28958,9086.274694,-57324.2226,-0.018,0.086,-0.988,192,0,0,0,0,0,0,0,0,0,0
 2023-06-24 15:09:29.952,-37319.09839,28670.76143,1612.097217,21227.20584,17452.91262,-63666.50774,9014.21267,-57427.35355,-0.018,0.086,-0.988,192,0,0,0,0,0,0,0,0,0,0
 2023-06-24 15:09:29.952,-37410.53938,29619.43652,2573.49045,22149.34941,18414.887,-64589.54538,9979.472754,-57970.50094,-0.018,0.086,-0.988,192,0,0,0,0,0,0,0,0,0,0
 2023-06-24 15:09:29.952,-37229.5573,30370.49983,3316.149511,22915.81308,19153.20982,-65009.64642,10729.95493,-58240.3312,-0.018,0.086,-0.988,192,0,0,0,0,0,0,0,0,0,0
 2023-06-24 15:09:29.952,-37012.94655,29949.25886,2872.825011,22536.25811,18716.25557,-64363.36808,10298.99094,-57875.97542,-0.018,0.086,-0.988,192,0,0,0,0,0,0,0,0,0,0
 2023-06-24 15:09:29.952,-37078.01248,28780.08381,1700.386608,21384.22684,17549.09218,-63454.59085,9134.107427,-57321.07101,-0.018,0.086,-0.988,192,0,0,0,0,0,0,0,0,0,0
 2023-06-24 15:09:29.952,-37329.29079,28640.38541,1581.989417,21216.25349,17427.6328,-63649.96745,8999.013483,-57419.0387,-0.018,0.086,-0.988,192,0,0,0,0,0,0,0,0,0,0
 2023-06-24 15:09:29.952,-37446.39158,29451.53021,2409.450997,21984.55,18247.83006,-64586.68436,9827.860871,-57973.7643,-0.018,0.086,-0.988,192,0,0,0,0,0,0,0,0,0,0
 2023-06-24 15:09:29.952,-37269.32106,30242.46904,3188.118719,22780.65208,19029.73879,-65021.87282,10619.98434,-58254.03282,-0.014,0.094,-0.994,192,255,144,2,240,224,240,0,0,0,0
 2023-06-24 15:09:29.952,-37042.80848,29936.65247,2856.575293,22538.78385,18710.04179,-64383.14937,10284.46231,-57893.27567,-0.014,0.094,-0.994,192,0,0,0,0,0,0,0,0,0,0
 2023-06-24 15:09:29.952,-37099.96189,28790.16445,1706.063951,21419.14027,17564.96192,-63463.03981,9136.744933,-57330.5258,-0.014,0.094,-0.994,192,0,0,0,0,0,0,0,0,0,0
 2023-06-24 15:09:29.952,-37348.62505,28643.42524,1584.71633,21221.64026,17434.69595,-63635.61763,9007.753015,-57413.78604,-0.014,0.094,-0.994,192,0,0,0,0,0,0,0,0,0,0
 2023-06-24 15:09:29.952,-37461.54606,29501.3746,2458.602483,22039.82586,18302.43537,-64560.84574,9880.990968,-57958.58746,-0.014,0.094,-0.994,192,0,0,0,0,0,0,0,0,0,0
 2023-06-24 15:09:29.952,-37291.56104,30293.52043,3240.086524,22838.00666,19080.5443,-65015.18965,10662.27384,-58249.33895,-0.014,0.094,-0.994,192,0,0,0,0,0,0,0,0,0,0
 2023-06-24 15:09:29.952,-37070.74816,29966.425,2888.135956,22548.86449,18729.17488,-64398.21445,10318.68283,-57903.89274,-0.014,0.094,-0.994,192,0,0,0,0,0,0,0,0,0,0
 2023-06-24 15:09:29.952,-37129.51089,28789.85152,1704.678143,21388.11605,17548.28752,-63476.65202,9146.155017,-57343.10983,-0.014,0.094,-0.994,192,0,0,0,0,0,0,0,0,0,0
 2023-06-24 15:09:29.952,-37377.12352,28632.69641,1570.567676,21182.50235,17407.20331,-63631.3261,9005.696655,-57415.44007,-0.014,0.094,-0.994,192,0,0,0,0,0,0,0,0,0,0
 2023-06-24 15:09:29.952,-37499.61108,29450.34557,2399.88445,21971.51893,18237.63767,-64557.47063,9816.528537,-57962.43196,-0.014,0.094,-0.994,192,0,0,0,0,0,0,0,0,0,0
 2023-06-24 15:09:29.952,-37333.47056,30241.8879,3182.731948,22778.26044,19017.15476,-65029.78534,10589.63067,-58263.88994,-0.018,0.094,-0.988,192,255,112,2,240,225,32,0,0,0,0
 2023-06-24 15:09:29.952,-37107.51678,29966.04502,2886.683093,22542.87422,18725.46449,-64423.00253,10303.37188,-57923.27171,-0.018,0.094,-0.988,192,0,0,0,0,0,0,0,0,0,0
 2023-06-24 15:09:29.952,-37152.98023,28852.45876,1764.424356,21452.01969,17608.01138,-63482.46348,9178.587398,-57348.96598,-0.018,0.094,-0.988,192,0,0,0,0,0,0,0,0,0,0
 2023-06-24 15:09:29.952,-37408.61713,28630.43888,1564.063318,21181.51887,17400.31897,-63622.4748,8976.281759,-57413.16019,-0.018,0.094,-0.988,192,0,0,0,0,0,0,0,0,0,0
 2023-06-24 15:09:29.952,-37535.93266,29434.74405,2382.159517,21943.44514,18217.07406,-64546.00418,9798.89301,-57957.60399,-0.018,0.094,-0.988,192,0,0,0,0,0,0,0,0,0,0
 2023-06-24 15:09:29.952,-37380.0069,30203.08527,3137.871997,22722.13521,18971.5572,-65039.24013,10558.49469,-58274.77524,-0.018,0.094,-0.988,192,0,0,0,0,0,0,0,0,0,0
 2023-06-24 15:09:29.952,-37147.79462,30005.54055,2916.075637,22566.05298,18753.31476,-64442.85088,10333.18911,-57940.77312,-0.018,0.094,-0.988,192,0,0,0,0,0,0,0,0,0,0
 2023-06-24 15:09:29.952,-37190.97819,28881.42662,1785.300885,21462.83793,17627.34564,-63493.7064,9204.403663,-57364.99219,-0.018,0.094,-0.988,192,0,0,0,0,0,0,0,0,0,0
 2023-06-24 15:09:29.952,-37447.06213,28628.62839,1554.630882,21179.9766,17394.90985,-63613.26589,8963.742431,-57420.22335,-0.018,0.094,-0.988,192,0,0,0,0,0,0,0,0,0,0
 2023-06-24 15:09:29.952,-37571.06961,29469.18809,2414.055456,21982.94067,18244.23143,-64521.48432,9812.59463,-57954.40769,-0.018,0.094,-0.988,192,0,0,0,0,0,0,0,0,0,0
 2023-06-24 15:09:29.952,-37410.42762,30289.363,3227.971879,22814.8726,19058.81841,-65024.55503,10632.47897,-58275.62461,-0.02,0.092,-0.982,192,255,96,2,224,225,80,0,0,0,0
 2023-06-24 15:09:29.952,-37184.98792,30037.28003,2958.65571,22593.45622,18782.81907,-64451.38925,10371.96939,-57961.672,-0.02,0.092,-0.982,192,0,0,0,0,0,0,0,0,0,0
 2023-06-24 15:09:29.952,-37223.29881,28915.8483,1832.507769,21493.39276,17659.42039,-63498.86966,9240.278213,-57385.24287,-0.02,0.092,-0.982,192,0,0,0,0,0,0,0,0,0,0
 2023-06-24 15:09:29.952,-37469.88326,28696.64475,1631.073848,21253.5809,17465.72017,-63595.20568,9035.580937,-57424.29136,-0.02,0.092,-0.982,192,0,0,0,0,0,0,0,0,0,0
 2023-06-24 15:09:29.952,-37605.51364,29459.44273,2406.746436,21985.04174,18243.33736,-64502.30652,9822.429397,-57959.19096,-0.02,0.092,-0.982,192,0,0,0,0,0,0,0,0,0,0
 2023-06-24 15:09:29.952,-37449.45377,30294.39214,3233.045725,22832.50813,19072.38592,-65019.77176,10652.7073,-58290.55557,-0.02,0.092,-0.982,192,0,0,0,0,0,0,0,0,0,0
 2023-06-24 15:09:29.952,-37225.10931,30065.68909,2980.918048,22647.14511,18822.64988,-64467.50486,10407.12868,-57988.78467,-0.02,0.092,-0.982,192,0,0,0,0,0,0,0,0,0,0
 2023-06-24 15:09:29.952,-37267.01883,28880.01846,1789.435958,21480.00407,17636.57691,-63517.53336,9224.430826,-57415.753,-0.02,0.092,-0.982,192,0,0,0,0,0,0,0,0,0,0
 2023-06-24 15:09:29.952,-37513.64798,28628.42722,1562.141068,21190.61603,17404.83402,-63593.08226,8993.090271,-57440.87636,-0.02,0.092,-0.982,192,0,0,0,0,0,0,0,0,0,0
 2023-06-24 15:09:29.952,-37649.88186,29401.10468,2354.175133,21925.11671,18188.0615,-64488.49314,9767.24294,-57966.14235,-0.02,0.092,-0.982,192,0,0,0,0,0,0,0,0,0,0
 2023-06-24 15:09:29.952,-37509.04352,30155.09607,3094.442558,22686.97592,18930.5641,-65033.00399,10499.64255,-58315.05308,-0.022,0.092,-0.978,192,255,80,2,224,225,112,0,0,0,0
 2023-06-24 15:09:29.952,-37281.9945,29991.52601,2910.621811,22558.18517,18743.65881,-64499.17728,10319.44279,-58023.27341,-0.022,0.092,-0.978,192,0,0,0,0,0,0,0,0,0,0
 2023-06-24 15:09:29.952,-37308.2578,28921.16802,1837.961595,21510.60361,17673.97138,-63537.26995,9248.168379,-57439.75877,-0.022,0.092,-0.978,192,0,0,0,0,0,0,0,0,0,0
 2023-06-24 15:09:29.952,-37558.66439,28600.24167,1535.743658,21156.10494,17370.59115,-63595.45155,8952.387744,-57456.61199,-0.022,0.092,-0.978,192,0,0,0,0,0,0,0,0,0,0
 2023-06-24 15:09:29.952,-37705.42594,29299.09132,2247.423201,21808.50766,18075.60987,-64486.59324,9662.949701,-57981.72152,-0.022,0.092,-0.978,192,0,0,0,0,0,0,0,0,0,0
 2023-06-24 15:09:29.952,-37551.93651,30196.11152,3133.714573,22711.42873,18962.28122,-65028.82421,10546.17888,-58325.96073,-0.022,0.092,-0.978,192,0,0,0,0,0,0,0,0,0,0
 2023-06-24 15:09:29.952,-37319.90305,30086.69973,3000.520527,22654.25296,18843.28054,-64507.89446,10429.05574,-58040.26074,-0.022,0.092,-0.978,192,0,0,0,0,0,0,0,0,0,0
 2023-06-24 15:09:29.952,-37354.16828,28939.29528,1842.297833,21543.97476,17696.59134,-63553.29616,9269.44724,-57463.25045,-0.022,0.092,-0.978,192,0,0,0,0,0,0,0,0,0,0
 2023-06-24 15:09:29.952,-37604.82074,28589.0211,1511.179091,21158.69774,17361.78456,-63590.08713,8931.95825,-57465.57504,-0.022,0.092,-0.978,192,0,0,0,0,0,0,0,0,0,0
 2023-06-24 15:09:29.952,-37751.47054,29317.30799,2257.749707,21840.29184,18099.86151,-64469.29299,9668.269416,-57978.88285,-0.022,0.092,-0.978,192,0,0,0,0,0,0,0,0,0,0
 2023-06-24 15:09:29.952,-37604.77604,30213.27766,3148.28791,22737.31205,18988.38806,-65025.94084,10546.29064,-58333.40387,-0.02,0.09,-0.978,192,255,96,2,208,225,112,0,0,0,0
 2023-06-24 15:09:29.952,-37382.73381,30048.99234,2961.181457,22613.52809,18803.58384,-64531.20733,10368.39311,-58067.99925,-0.02,0.09,-0.978,192,0,0,0,0,0,0,0,0,0,0
 2023-06-24 15:09:29.952,-37406.67253,28958.31662,1862.861438,21546.54521,17707.36488,-63569.79174,9284.221743,-57487.43504,-0.02,0.09,-0.978,192,0,0,0,0,0,0,0,0,0,0
 2023-06-24 15:09:29.952,-37656.78855,28560.23205,1481.630085,21117.68229,17328.18989,-63589.81891,8904.331494,-57481.40007,-0.02,0.09,-0.978,192,0,0,0,0,0,0,0,0,0,0
 2023-06-24 15:09:29.952,-37798.72212,29296.65498,2232.961623,21808.93234,18077.77799,-64451.85863,9659.775753,-57984.29197,-0.02,0.09,-0.978,192,0,0,0,0,0,0,0,0,0,0
 2023-06-24 15:09:29.952,-37654.55337,30202.92881,3133.066372,22723.56572,18979.73794,-65019.39178,10561.7357,-58343.12687,-0.02,0.09,-0.978,192,0,0,0,0,0,0,0,0,0,0
 2023-06-24 15:09:30.431,-37427.12437,30105.25168,3017.418446,22667.32874,18861.89954,-64541.1315,10435.29188,-58087.40057,-0.02,0.09,-0.978,192,0,0,0,0,0,0,0,0,0,0
 2023-06-24 15:09:30.431,-37452.18068,28989.74317,1898.624229,21582.71034,17742.7924,-63588.05312,9320.185699,-57511.99961,-0.02,0.09,-0.978,192,0,0,0,0,0,0,0,0,0,0
 2023-06-24 15:09:30.431,-37704.12954,28572.59257,1497.857451,21136.56952,17343.07615,-63589.03659,8929.65602,-57492.53124,-0.02,0.09,-0.978,192,0,0,0,0,0,0,0,0,0,0
 2023-06-24 15:09:30.431,-37858.96008,29238.54044,2175.785861,21763.62536,18018.9482,-64446.82949,9592.586409,-57991.46688,-0.02,0.09,-0.978,192,0,0,0,0,0,0,0,0,0,0
 2023-06-24 15:09:30.431,-37721.09452,30143.62963,3076.203534,22665.69706,18910.22401,-65028.39953,10476.95553,-58356.20264,-0.026,0.09,-0.99,192,255,48,2,208,225,16,0,0,0,0
 2023-06-24 15:09:30.431,-37488.70343,30125.54707,3038.362031,22683.42199,18868.73917,-64559.90697,10431.20151,-58102.33153,-0.026,0.09,-0.99,192,0,0,0,0,0,0,0,0,0,0
 2023-06-24 15:09:30.431,-37505.15431,29082.27939,1983.873783,21680.76744,17827.30434,-63598.53609,9390.772508,-57521.11912,-0.026,0.09,-0.99,192,0,0,0,0,0,0,0,0,0,0
 2023-06-24 15:09:30.431,-37746.41904,28701.62919,1620.680287,21272.02109,17471.24105,-63570.03761,9042.979365,-57482.96469,-0.026,0.09,-0.99,192,0,0,0,0,0,0,0,0,0,0
 2023-06-24 15:09:30.431,-37894.05231,29395.6285,2333.365659,21927.24012,18179.74665,-64405.9705,9759.375126,-57967.32699,-0.026,0.09,-0.99,192,0,0,0,0,0,0,0,0,0,0
 2023-06-24 15:09:30.431,-37758.19841,30307.91495,3241.807609,22836.97848,19084.05353,-64995.54247,10660.73157,-58337.49423,-0.026,0.09,-0.99,192,0,0,0,0,0,0,0,0,0,0
 2023-06-24 15:09:30.431,-37538.16784,30224.49824,3138.699012,22789.3022,18980.34143,-64558.34234,10561.10985,-58106.98069,-0.026,0.09,-0.99,192,0,0,0,0,0,0,0,0,0,0
 2023-06-24 15:09:30.431,-37559.11142,29132.59317,2035.930995,21733.22698,17885.93297,-63607.45443,9463.147457,-57537.23473,-0.026,0.09,-0.99,192,0,0,0,0,0,0,0,0,0,0
 2023-06-24 15:09:30.431,-37803.77362,28682.07141,1605.503452,21251.81511,17450.07395,-63564.24851,9028.830711,-57493.96175,-0.026,0.09,-0.99,192,0,0,0,0,0,0,0,0,0,0
 2023-06-24 15:09:30.431,-37953.55266,29362.95025,2302.319086,21894.2266,18149.79531,-64387.01622,9729.133216,-57969.71863,-0.026,0.09,-0.99,192,0,0,0,0,0,0,0,0,0,0
 2023-06-24 15:09:30.431,-37821.4315,30283.86447,3218.204167,22815.83373,19069.97193,-64986.55706,10652.81906,-58344.98207,-0.024,0.096,-0.99,192,255,64,3,0,225,16,0,0,0,0
 2023-06-24 15:09:30.431,-37592.88491,30287.57486,3207.162405,22858.21263,19060.53949,-64559.81756,10646.00177,-58117.9107,-0.024,0.096,-0.99,192,0,0,0,0,0,0,0,0,0,0
 2023-06-24 15:09:30.431,-37607.61471,29224.23532,2134.166912,21817.49306,17984.3924,-63608.59437,9574.101516,-57548.03062,-0.024,0.096,-0.99,192,0,0,0,0,0,0,0,0,0,0
 2023-06-24 15:09:30.432,-37850.91345,28763.87879,1692.764663,21323.94419,17535.70348,-63545.20482,9133.928613,-57491.54776,-0.024,0.096,-0.99,192,0,0,0,0,0,0,0,0,0,0
 2023-06-24 15:09:30.432,-38012.3601,29369.34285,2318.211176,21891.87966,18154.93621,-64364.12804,9729.17792,-57964.84595,-0.024,0.096,-0.99,192,0,0,0,0,0,0,0,0,0,0
 2023-06-24 15:09:30.432,-37895.14755,30211.66834,3156.312186,22743.57054,18990.95851,-64985.43948,10557.15359,-58354.45921,-0.024,0.096,-0.99,192,0,0,0,0,0,0,0,0,0,0
 2023-06-24 15:09:30.432,-37668.43381,30235.38354,3160.804887,22807.54123,19001.91087,-64579.19652,10576.5102,-58138.94369,-0.024,0.096,-0.99,192,0,0,0,0,0,0,0,0,0,0
 2023-06-24 15:09:30.432,-37673.79822,29233.48895,2144.605177,21841.92352,18001.75971,-63627.21337,9580.158839,-57566.13553,-0.024,0.096,-0.99,192,0,0,0,0,0,0,0,0,0,0
 2023-06-24 15:09:30.432,-37916.53817,28735.33562,1658.924122,21320.9267,17520.95133,-63546.21065,9090.812098,-57498.05212,-0.024,0.096,-0.99,192,0,0,0,0,0,0,0,0,0,0
 2023-06-24 15:09:30.432,-38080.9576,29298.46547,2235.912053,21846.55033,18096.17348,-64354.78501,9675.265512,-57965.76237,-0.024,0.096,-0.99,192,0,0,0,0,0,0,0,0,0,0
 2023-06-24 15:09:30.432,-37961.62164,30189.85304,3121.957555,22735.88154,18984.76708,-64982.53375,10560.88633,-58358.63898,-0.022,0.088,-0.992,192,255,80,2,192,225,0,0,0,0,0
 2023-06-24 15:09:30.432,-37732.04687,30261.55743,3174.417099,22833.17868,19030.40934,-64591.02059,10608.67436,-58153.18175,-0.022,0.088,-0.992,192,0,0,0,0,0,0,0,0,0,0
 2023-06-24 15:09:30.432,-37736.87485,29255.77363,2159.580846,21862.06244,18019.43994,-63645.38534,9601.035369,-57586.40857,-0.022,0.088,-0.992,192,0,0,0,0,0,0,0,0,0,0
 2023-06-24 15:09:30.432,-37979.52538,28727.31134,1648.642319,21312.34363,17506.08742,-63548.17761,9077.557513,-57508.80331,-0.022,0.088,-0.992,192,0,0,0,0,0,0,0,0,0,0
 2023-06-24 15:09:30.432,-38146.76114,29245.98357,2185.352407,21790.82743,18032.58276,-64345.84431,9616.972162,-57968.0199,-0.022,0.088,-0.992,192,0,0,0,0,0,0,0,0,0,0
 2023-06-24 15:09:30.432,-38030.84499,30115.22056,3053.360051,22653.38125,18895.47186,-64982.93608,10487.79613,-58362.34937,-0.022,0.088,-0.992,192,0,0,0,0,0,0,0,0,0,0
 2023-06-24 15:09:30.432,-37799.57149,30197.25146,3117.867186,22769.07388,18959.48725,-64610.42191,10536.14295,-58166.65985,-0.022,0.088,-0.992,192,0,0,0,0,0,0,0,0,0,0
 2023-06-24 15:09:30.432,-37801.78431,29199.0002,2112.373961,21799.20933,17953.81522,-63671.53688,9533.130769,-57606.10045,-0.022,0.088,-0.992,192,0,0,0,0,0,0,0,0,0,0
 2023-06-24 15:09:30.432,-38033.77307,28729.77003,1664.601465,21303.64881,17502.28763,-63545.4954,9098.165822,-57511.01613,-0.022,0.088,-0.992,192,0,0,0,0,0,0,0,0,0,0
 2023-06-24 15:09:30.432,-38195.01855,29293.21281,2245.120972,21835.88855,18080.90724,-64321.77148,9675.779602,-57956.95579,-0.022,0.088,-0.992,192,0,0,0,0,0,0,0,0,0,0
 2023-06-24 15:09:30.432,-38081.11406,30162.71802,3109.932317,22716.9049,18950.03247,-64968.4298,10534.64538,-58357.29788,-0.018,0.088,-0.992,192,255,112,2,192,225,0,0,0,0,0
 2023-06-24 15:09:30.432,-37852.25455,30228.52155,3156.088669,22819.61117,19000.56976,-64618.53559,10587.64137,-58175.86877,-0.018,0.088,-0.992,192,0,0,0,0,0,0,0,0,0,0
 2023-06-24 15:09:30.432,-37844.09617,29293.99512,2207.882966,21912.26446,18059.87424,-63679.91879,9656.579454,-57612.38129,-0.018,0.088,-0.992,192,0,0,0,0,0,0,0,0,0,0
 2023-06-24 15:09:30.432,-38081.06936,28735.13445,1661.427517,21319.25032,17510.24485,-63545.38364,9107.911182,-57512.02196,-0.018,0.088,-0.992,192,0,0,0,0,0,0,0,0,0,0
 2023-06-24 15:09:30.432,-38244.9747,29247.0341,2193.689608,21791.118,18035.35438,-64311.51203,9633.624212,-57951.65842,-0.018,0.088,-0.992,192,0,0,0,0,0,0,0,0,0,0
 2023-06-24 15:09:30.432,-38135.54056,30127.82694,3073.722491,22676.09062,18915.90135,-64962.86422,10508.76206,-58353.40868,-0.018,0.088,-0.992,192,0,0,0,0,0,0,0,0,0,0
 2023-06-24 15:09:30.432,-37906.94927,30237.68577,3161.788364,22826.78608,19011.67858,-64627.90097,10593.1399,-58180.94262,-0.018,0.088,-0.992,192,0,0,0,0,0,0,0,0,0,0
 2023-06-24 15:09:30.432,-37909.13974,29240.61915,2149.209636,21862.33066,18004.28546,-63705.668,9584.539781,-57633.66015,-0.018,0.088,-0.992,192,0,0,0,0,0,0,0,0,0,0
 2023-06-24 15:09:30.432,-38143.22956,28697.94115,1624.0554,21282.30289,17471.37516,-63551.2845,9065.912255,-57522.97432,-0.018,0.088,-0.992,192,0,0,0,0,0,0,0,0,0,0
 2023-06-24 15:09:30.432,-38300.94347,29242.04966,2183.899544,21791.7662,18032.60512,-64297.85511,9630.204395,-57948.81975,-0.018,0.088,-0.992,192,0,0,0,0,0,0,0,0,0,0
 2023-06-24 15:09:30.432,-38187.70953,30162.78507,3105.193747,22709.88646,18950.52421,-64951.7107,10539.16044,-58350.54765,-0.016,0.088,-0.99,192,255,128,2,192,225,16,0,0,0,0
 2023-06-24 15:09:30.432,-37953.15033,30330.37845,3255.91156,22894.9142,19092.23426,-64628.61623,10684.84911,-58183.40131,-0.016,0.088,-0.99,192,0,0,0,0,0,0,0,0,0,0
 2023-06-24 15:09:30.432,-37947.58474,29379.93757,2296.395874,21980.66079,18136.74189,-63708.8643,9728.060332,-57635.67181,-0.016,0.088,-0.99,192,0,0,0,0,0,0,0,0,0,0
 2023-06-24 15:09:30.432,-38178.50061,28803.44138,1733.154265,21407.45031,17587.09015,-63536.82292,9166.070421,-57514.97239,-0.016,0.088,-0.99,192,0,0,0,0,0,0,0,0,0,0
 2023-06-24 15:09:30.432,-38346.2281,29260.64631,2198.919916,21826.52316,18055.35919,-64275.79394,9632.57368,-57940.14727,-0.016,0.088,-0.99,192,0,0,0,0,0,0,0,0,0,0
 2023-06-24 15:09:30.432,-38244.8853,30133.0349,3068.581589,22680.40451,18918.76238,-64940.35601,10496.11098,-58352.15698,-0.016,0.088,-0.99,192,0,0,0,0,0,0,0,0,0,0
 2023-06-24 15:09:30.432,-38023.60302,30256.68475,3175.422928,22831.03291,19025.67077,-64645.11182,10601.49945,-58205.30602,-0.016,0.088,-0.99,192,0,0,0,0,0,0,0,0,0,0
 2023-06-24 15:09:30.432,-38011.48838,29361.05035,2268.970283,21961.95238,18121.98974,-63727.37154,9702.981675,-57659.09644,-0.016,0.088,-0.99,192,0,0,0,0,0,0,0,0,0,0
 2023-06-24 15:09:30.432,-38239.11854,28799.39572,1726.381686,21368.55827,17566.683,-63534.92302,9149.105447,-57526.61765,-0.016,0.088,-0.99,192,0,0,0,0,0,0,0,0,0,0
 2023-06-24 15:09:30.432,-38404.83438,29244.59776,2188.727521,21783.80898,18029.60998,-64256.52674,9608.23263,-57941.13075,-0.016,0.088,-0.99,192,0,0,0,0,0,0,0,0,0,0
 2023-06-24 15:09:30.432,-38303.31276,30136.58883,3077.43288,22687.44531,18929.11123,-64924.26275,10490.45598,-58352.31344,-0.016,0.088,-0.988,192,255,128,2,192,225,32,0,0,0,0
 2023-06-24 15:09:30.432,-38090.61355,30206.12511,3127.724305,22790.71036,18977.88274,-64655.8183,10550.49277,-58221.1087,-0.016,0.088,-0.988,192,0,0,0,0,0,0,0,0,0,0
 2023-06-24 15:09:30.432,-38073.04508,29327.94742,2236.023812,21938.416,18088.35037,-63748.44924,9671.26455,-57682.45401,-0.016,0.088,-0.988,192,0,0,0,0,0,0,0,0,0,0
 2023-06-24 15:09:30.432,-38293.50034,28784.10712,1705.974544,21366.27839,17556.13298,-63538.52165,9150.491256,-57539.58166,-0.016,0.088,-0.988,192,0,0,0,0,0,0,0,0,0,0
 2023-06-24 15:09:30.432,-38463.77593,29173.3404,2113.715066,21722.40874,17960.00665,-64253.35279,9552.085048,-57949.26679,-0.016,0.088,-0.988,192,0,0,0,0,0,0,0,0,0,0
 2023-06-24 15:09:30.432,-38363.95304,30044.74551,2982.929705,22594.5291,18834.38454,-64929.15779,10405.76522,-58364.02576,-0.016,0.088,-0.988,192,0,0,0,0,0,0,0,0,0,0
 2023-06-24 15:09:30.432,-38136.36758,30210.41664,3131.792323,22794.62192,18987.00225,-64667.48591,10557.01948,-58234.74327,-0.016,0.088,-0.988,192,0,0,0,0,0,0,0,0,0,0
 2023-06-24 15:09:30.432,-38111.44538,29359.39632,2268.992635,21969.03789,18124.96252,-63763.24609,9707.988466,-57697.16146,-0.016,0.088,-0.988,192,0,0,0,0,0,0,0,0,0,0
 2023-06-24 15:09:30.432,-38328.97256,28803.86607,1728.750971,21388.25016,17576.94245,-63533.06783,9157.643814,-57540.96747,-0.016,0.088,-0.988,192,0,0,0,0,0,0,0,0,0,0
 2023-06-24 15:09:30.432,-38501.34921,29175.86615,2117.805435,21725.56033,17965.37107,-64234.2644,9559.304662,-57941.91306,-0.016,0.088,-0.988,192,0,0,0,0,0,0,0,0,0,0
 2023-06-24 15:09:30.432,-38414.088,29999.70675,2941.064887,22549.17741,18791.78212,-64922.42991,10387.43679,-58363.39991,-0.02,0.086,-0.99,192,255,96,2,176,225,16,0,0,0,0
 2023-06-24 15:09:30.432,-38192.31399,30203.66641,3124.148026,22788.81047,18978.26272,-64677.20892,10563.30032,-58242.65578,-0.02,0.086,-0.99,192,0,0,0,0,0,0,0,0,0,0
 2023-06-24 15:09:30.432,-38162.80969,29423.7917,2330.012897,22030.01345,18184.41816,-63772.07503,9764.180751,-57705.31985,-0.02,0.086,-0.99,192,0,0,0,0,0,0,0,0,0,0
 2023-06-24 15:09:30.432,-38395.93838,28771.14311,1694.463395,21357.62827,17541.44788,-63535.97355,9126.731351,-57548.43295,-0.02,0.086,-0.99,192,0,0,0,0,0,0,0,0,0,0
 2023-06-24 15:09:30.432,-38575.44524,29125.2618,2068.631598,21677.25821,17911.43631,-64225.81544,9492.741167,-57941.68954,-0.02,0.086,-0.99,192,0,0,0,0,0,0,0,0,0,0
 2023-06-24 15:09:30.432,-38482.08201,30023.04197,2966.143544,22559.52627,18803.58384,-64905.88962,10392.22007,-58356.9179,-0.02,0.086,-0.99,192,0,0,0,0,0,0,0,0,0,0
 2023-06-24 15:09:30.432,-38263.86193,30211.8248,3132.664041,22774.95238,18972.36186,-64676.42661,10567.16717,-58245.33799,-0.02,0.086,-0.99,192,0,0,0,0,0,0,0,0,0,0
 2023-06-24 15:09:30.432,-38245.04176,29342.74427,2248.384327,21938.30424,18096.26288,-63790.91755,9687.804841,-57724.76586,-0.02,0.086,-0.99,192,0,0,0,0,0,0,0,0,0,0
 2023-06-24 15:09:30.432,-38473.09661,28727.49015,1651.704508,21303.96173,17497.41495,-63535.07948,9099.775147,-57556.23371,-0.02,0.086,-0.99,192,0,0,0,0,0,0,0,0,0,0
 2023-06-24 15:09:30.432,-38647.35081,29136.7953,2077.438185,21683.27083,17924.66854,-64207.46466,9537.288193,-57936.6604,-0.02,0.086,-0.99,192,0,0,0,0,0,0,0,0,0,0
 2023-06-24 15:09:30.432,-38569.87966,29948.34244,2887.823032,22493.96861,18740.39546,-64905.15201,10333.85966,-58364.58455,-0.022,0.096,-0.984,192,255,80,3,0,225,64,0,0,0,0
 2023-06-24 15:09:30.432,-38352.15132,30176.48669,3098.309409,22744.53166,18950.68067,-64689.14475,10543.11669,-58259.97838,-0.022,0.096,-0.984,192,0,0,0,0,0,0,0,0,0,0
 2023-06-24 15:09:30.433,-38318.44489,29425.60219,2330.348173,22026.21365,18190.02845,-63797.62307,9774.440202,-57730.51026,-0.022,0.096,-0.984,192,0,0,0,0,0,0,0,0,0,0
 2023-06-24 15:09:30.433,-38534.40744,28862.71821,1775.510821,21448.06343,17636.06282,-63518.13686,9226.353076,-57543.98495,-0.022,0.096,-0.984,192,0,0,0,0,0,0,0,0,0,0
 2023-06-24 15:09:30.433,-38713.98136,29201.25773,2129.450694,21751.73423,17989.98034,-64184.12944,9582.930456,-57923.02584,-0.022,0.096,-0.984,192,0,0,0,0,0,0,0,0,0,0
 2023-06-24 15:09:30.433,-38642.1652,29987.83797,2915.002753,22520.1872,18772.58197,-64889.25992,10368.86249,-58353.00635,-0.022,0.096,-0.984,192,0,0,0,0,0,0,0,0,0,0
 2023-06-24 15:09:30.433,-38427.76727,30205.49926,3124.103323,22762.36835,18974.44057,-64690.59762,10563.0768,-58257.96673,-0.022,0.096,-0.984,192,0,0,0,0,0,0,0,0,0,0
 2023-06-24 15:09:30.433,-38390.26104,29474.48545,2383.791194,22063.71988,18232.60852,-63804.46271,9814.203955,-57734.51122,-0.022,0.096,-0.984,192,0,0,0,0,0,0,0,0,0,0
 2023-06-24 15:09:30.433,-38608.19055,28897.89985,1821.018973,21463.46378,17662.99667,-63510.20199,9238.892405,-57542.018,-0.022,0.096,-0.984,192,0,0,0,0,0,0,0,0,0,0
 2023-06-24 15:09:30.433,-38794.22412,29215.31698,2153.702337,21749.90138,17994.60715,-64165.82336,9573.945054,-57912.297,-0.022,0.096,-0.984,192,0,0,0,0,0,0,0,0,0,0
 2023-06-24 15:09:30.433,-38723.30203,30014.83888,2953.02307,22536.30281,18788.78698,-64874.8654,10375.97035,-58342.65749,-0.022,0.094,-0.986,192,255,80,2,240,225,48,0,0,0,0
 2023-06-24 15:09:30.433,-38512.01099,30193.80929,3113.799168,22734.87571,18951.50768,-64695.78322,10544.23428,-58259.509,-0.022,0.094,-0.986,192,0,0,0,0,0,0,0,0,0,0
 2023-06-24 15:09:30.433,-38465.87699,29487.9412,2398.029256,22070.4701,18243.24796,-63815.88445,9818.651953,-57739.11568,-0.022,0.094,-0.986,192,0,0,0,0,0,0,0,0,0,0
 2023-06-24 15:09:30.433,-38686.26519,28865.2216,1790.352379,21433.71361,17630.78781,-63513.37594,9212.249126,-57542.82266,-0.022,0.094,-0.986,192,0,0,0,0,0,0,0,0,0,0
 2023-06-24 15:09:30.433,-38871.47175,29202.42002,2145.119267,21718.676,17973.06007,-64157.01677,9570.212313,-57906.48555,-0.022,0.094,-0.986,192,0,0,0,0,0,0,0,0,0,0
 2023-06-24 15:09:30.433,-38811.79259,29950.68937,2891.600477,22468.82289,18723.47518,-64877.59231,10317.90052,-58344.84796,-0.022,0.094,-0.986,192,0,0,0,0,0,0,0,0,0,0
 2023-06-24 15:09:30.433,-38593.12547,30218.8656,3137.2685,22773.8348,18984.4318,-64706.42265,10563.0321,-58263.3535,-0.022,0.094,-0.986,192,0,0,0,0,0,0,0,0,0,0
 2023-06-24 15:09:30.433,-38539.86127,29551.66603,2454.981501,22123.28728,18296.37805,-63825.65216,9886.690663,-57740.41209,-0.022,0.094,-0.986,192,0,0,0,0,0,0,0,0,0,0
 2023-06-24 15:09:30.433,-38756.09204,28938.98236,1856.22297,21500.2771,17698.35713,-63505.2399,9295.263504,-57531.42327,-0.022,0.094,-0.986,192,0,0,0,0,0,0,0,0,0,0
 2023-06-24 15:09:30.433,-38940.40453,29279.28767,2211.302782,21817.49306,18057.37085,-64139.60476,9645.247119,-57888.51474,-0.022,0.094,-0.986,192,0,0,0,0,0,0,0,0,0,0
 2023-06-24 15:09:30.433,-38877.46201,30071.67936,3004.365027,22603.49215,18849.47197,-64866.12587,10433.48139,-58328.37472,-0.022,0.096,-0.988,192,255,80,3,0,225,32,0,0,0,0
 2023-06-24 15:09:30.433,-38659.06312,30329.50673,3249.206036,22877.70335,19089.39559,-64710.13304,10679.86467,-58255.93272,-0.022,0.096,-0.988,192,0,0,0,0,0,0,0,0,0,0
 2023-06-24 15:09:30.433,-38602.15558,29598.0459,2505.921126,22168.79543,18341.61798,-63824.55693,9938.077323,-57732.63368,-0.022,0.096,-0.988,192,0,0,0,0,0,0,0,0,0,0
 2023-06-24 15:09:30.433,-38813.93836,28965.15625,1886.688398,21530.54136,17727.77202,-63470.55,9319.090464,-57507.03752,-0.022,0.096,-0.988,192,0,0,0,0,0,0,0,0,0,0
 2023-06-24 15:09:30.433,-39016.17694,29248.44226,2189.48748,21788.5699,18028.67121,-64115.6884,9618.469729,-57874.96959,-0.022,0.096,-0.988,192,0,0,0,0,0,0,0,0,0,0
 2023-06-24 15:09:30.433,-38968.16539,30060.77171,3002.912164,22585.34254,18839.0337,-64881.52622,10417.11991,-58339.79646,-0.022,0.096,-0.988,192,0,0,0,0,0,0,0,0,0,0
 2023-06-24 15:09:30.433,-38747.79955,30347.74576,3271.155449,22898.44577,19111.2109,-64740.88904,10690.66056,-58274.3282,-0.022,0.096,-0.988,192,0,0,0,0,0,0,0,0,0,0
 2023-06-24 15:09:30.433,-38682.26423,29570.41914,2476.416823,22154.33385,18320.87556,-63843.08652,9898.82766,-57745.30712,-0.022,0.096,-0.988,192,0,0,0,0,0,0,0,0,0,0
 2023-06-24 15:09:30.433,-38891.00717,28898.86098,1815.699257,21464.00022,17660.29211,-63464.1574,9243.340402,-57505.83053,-0.022,0.096,-0.988,192,0,0,0,0,0,0,0,0,0,0
 2023-06-24 15:09:30.433,-39095.0339,29213.30532,2148.539084,21739.35136,17987.36518,-64101.53974,9572.313377,-57866.36417,-0.022,0.096,-0.988,192,0,0,0,0,0,0,0,0,0,0
 2023-06-24 15:09:30.433,-39046.84353,30079.10014,3023.319307,22584.76139,18848.89082,-64872.94315,10441.50566,-58330.0064,-0.026,0.096,-0.988,192,255,48,3,0,225,32,0,0,0,0
 2023-06-24 15:09:30.433,-38830.72452,30365.20247,3290.780281,22897.43994,19121.00096,-64750.5897,10702.70815,-58275.62461,-0.026,0.096,-0.988,192,0,0,0,0,0,0,0,0,0,0
 2023-06-24 15:09:30.433,-38757.92489,29624.53271,2527.736429,22195.21519,18366.62958,-63852.98834,9954.572911,-57746.71528,-0.026,0.096,-0.988,192,0,0,0,0,0,0,0,0,0,0
 2023-06-24 15:09:30.433,-38971.09347,28849.7989,1773.476812,21422.98477,17605.79856,-63463.57625,9202.280247,-57505.4729,-0.026,0.096,-0.988,192,0,0,0,0,0,0,0,0,0,0
 2023-06-24 15:09:30.433,-39175.94721,29132.41436,2072.431394,21669.77038,17903.50144,-64089.80508,9503.67117,-57864.03958,-0.026,0.096,-0.988,192,0,0,0,0,0,0,0,0,0,0
 2023-06-24 15:09:30.433,-39127.42157,30020.42681,2965.383585,22533.68766,18790.97745,-64867.48932,10397.04804,-58330.43108,-0.026,0.096,-0.988,192,0,0,0,0,0,0,0,0,0,0
 2023-06-24 15:09:30.433,-38906.56399,30338.38038,3260.27015,22893.28252,19098.80568,-64758.25635,10701.4341,-58280.98902,-0.026,0.096,-0.988,192,0,0,0,0,0,0,0,0,0,0
 2023-06-24 15:09:30.433,-38828.6011,29607.25482,2511.307897,22193.73997,18349.08347,-63867.00289,9944.69344,-57756.6171,-0.026,0.096,-0.988,192,0,0,0,0,0,0,0,0,0,0
 2023-06-24 15:09:30.433,-39025.18469,28937.66361,1858.502848,21504.63569,17686.71187,-63447.28183,9282.14303,-57495.59343,-0.026,0.096,-0.988,192,0,0,0,0,0,0,0,0,0,0
 2023-06-24 15:09:30.433,-39236.98982,29186.30441,2124.332145,21712.95395,17948.36139,-64063.43002,9545.513635,-57847.14166,-0.026,0.096,-0.988,192,0,0,0,0,0,0,0,0,0,0
 2023-06-24 15:09:30.433,-39201.56231,30007.93219,2944.484704,22528.23383,18772.22434,-64855.44173,10355.65261,-58322.65268,-0.028,0.092,-0.992,192,255,32,2,224,225,0,0,0,0,0
 2023-06-24 15:09:30.433,-38981.48703,30326.69041,3247.909635,22880.11734,19080.32079,-64763.48666,10668.97937,-58281.9278,-0.028,0.092,-0.992,192,0,0,0,0,0,0,0,0,0,0
 2023-06-24 15:09:30.433,-38896.5504,29603.03034,2509.162129,22185.55924,18341.238,-63876.23416,9924.085131,-57758.22643,-0.028,0.092,-0.992,192,0,0,0,0,0,0,0,0,0,0
 2023-06-24 15:09:30.433,-39084.77444,28924.96782,1843.303662,21489.19064,17673.5914,-63435.18954,9259.903045,-57483.14351,-0.028,0.092,-0.992,192,0,0,0,0,0,0,0,0,0,0
 2023-06-24 15:09:30.433,-39289.53878,29216.2781,2155.132849,21738.43494,17977.15044,-64034.84214,9555.348403,-57824.11937,-0.028,0.092,-0.992,192,0,0,0,0,0,0,0,0,0,0
 2023-06-24 15:09:30.433,-39259.85566,30026.86411,2971.08328,22529.30671,18785.2107,-64839.25907,10363.87806,-58305.33007,-0.028,0.092,-0.992,192,0,0,0,0,0,0,0,0,0,0
 2023-06-24 15:09:30.911,-39042.93198,30324.70111,3251.530618,22857.65384,19073.21293,-64767.15234,10655.03188,-58276.25045,-0.028,0.092,-0.992,192,0,0,0,0,0,0,0,0,0,0
 2023-06-24 15:09:30.912,-38954.97786,29584.63485,2489.112614,22156.81489,18320.0709,-63885.48778,9912.059893,-57757.33236,-0.028,0.092,-0.992,192,0,0,0,0,0,0,0,0,0,0
 2023-06-24 15:09:30.912,-39149.72861,28830.68816,1751.437992,21392.0276,17572.3827,-63435.25659,9158.984918,-57479.27665,-0.028,0.092,-0.992,192,0,0,0,0,0,0,0,0,0,0
 2023-06-24 15:09:30.912,-39356.30344,29115.00235,2062.350757,21634.56638,17872.43251,-64025.70027,9455.994899,-57812.20589,-0.028,0.092,-0.992,192,0,0,0,0,0,0,0,0,0,0
 2023-06-24 15:09:30.912,-39320.11596,29994.78936,2946.161085,22506.99967,18760.95906,-64829.91604,10355.29499,-58289.12506,-0.024,0.094,-0.994,192,255,64,2,240,224,240,0,0,0,0
 2023-06-24 15:09:30.912,-39094.89978,30334.1559,3267.825039,22874.19413,19085.12641,-64768.62756,10677.7189,-58264.0464,-0.024,0.094,-0.994,192,0,0,0,0,0,0,0,0,0,0
 2023-06-24 15:09:30.912,-38999.63665,29606.15958,2516.649963,22185.29101,18347.0271,-63889.57815,9946.436876,-57746.46941,-0.024,0.094,-0.994,192,0,0,0,0,0,0,0,0,0,0
 2023-06-24 15:09:30.912,-39182.74214,28871.36833,1791.782891,21441.42496,17623.07645,-63414.1789,9222.463873,-57453.08041,-0.024,0.094,-0.994,192,0,0,0,0,0,0,0,0,0,0
 2023-06-24 15:09:30.912,-39398.21296,29084.62633,2025.470379,21615.20977,17850.61721,-63996.24068,9448.507064,-57782.99216,-0.024,0.094,-0.994,192,0,0,0,0,0,0,0,0,0,0
 2023-06-24 15:09:30.912,-39375.54829,29913.98781,2862.565561,22419.38083,18673.69785,-64815.85679,10284.10468,-58270.46135,-0.024,0.094,-0.994,192,0,0,0,0,0,0,0,0,0,0
 2023-06-24 15:09:30.912,-39157.55172,30239.92094,3176.518163,22786.59764,19000.25684,-64775.02016,10605.16514,-58258.9502,-0.024,0.094,-0.994,192,0,0,0,0,0,0,0,0,0,0
 2023-06-24 15:09:30.912,-39057.01358,29554.68351,2471.924123,22159.13947,18307.50922,-63898.89883,9886.981235,-57742.20022,-0.024,0.094,-0.994,192,0,0,0,0,0,0,0,0,0,0
 2023-06-24 15:09:30.912,-39240.16377,28786.20819,1711.428369,21379.8012,17549.98625,-63411.0273,9126.820758,-57440.92106,-0.024,0.094,-0.994,192,0,0,0,0,0,0,0,0,0,0
 2023-06-24 15:09:30.912,-39449.4208,29038.87231,1984.700797,21577.50238,17814.69796,-63974.76065,9389.274942,-57758.5617,-0.024,0.094,-0.994,192,0,0,0,0,0,0,0,0,0,0
 2023-06-24 15:09:30.912,-39425.12446,29908.93631,2863.951369,22419.26908,18682.10211,-64794.60028,10251.56054,-58244.48863,-0.02,0.096,-0.992,192,255,96,3,0,225,0,0,0,0,0
 2023-06-24 15:09:30.912,-39201.78583,30287.39605,3224.261489,22837.06788,19055.06331,-64765.3195,10617.25743,-58239.23597,-0.02,0.096,-0.992,192,0,0,0,0,0,0,0,0,0,0
 2023-06-24 15:09:30.912,-39092.35169,29646.32567,2557.128973,22240.25395,18400.89481,-63894.40613,9960.026736,-57726.41989,-0.02,0.096,-0.992,192,0,0,0,0,0,0,0,0,0,0
 2023-06-24 15:09:30.912,-39270.69626,28885.11466,1811.452426,21463.01674,17638.29799,-63387.93795,9204.984809,-57415.01539,-0.02,0.096,-0.992,192,0,0,0,0,0,0,0,0,0,0
 2023-06-24 15:09:30.912,-39486.5247,29080.40185,2030.410115,21603.54216,17838.61433,-63939.84722,9429.396323,-57727.69394,-0.02,0.096,-0.992,192,0,0,0,0,0,0,0,0,0,0
 2023-06-24 15:09:30.912,-39466.654,29947.22485,2902.396369,22452.01438,18713.26044,-64763.33019,10291.92779,-58217.15244,-0.02,0.096,-0.992,192,0,0,0,0,0,0,0,0,0,0
 2023-06-24 15:09:30.912,-39252.0996,30278.85768,3217.555966,22829.87062,19040.7582,-64754.94829,10613.50234,-58227.00956,-0.02,0.096,-0.992,192,0,0,0,0,0,0,0,0,0,0
 2023-06-24 15:09:30.912,-39138.48569,29660.38491,2584.152232,22245.26074,18406.34863,-63892.32742,9980.232713,-57718.95441,-0.02,0.096,-0.992,192,0,0,0,0,0,0,0,0,0,0
 2023-06-24 15:09:30.912,-39324.04987,28828.94472,1760.803373,21415.87691,17590.77818,-63383.89228,9176.598093,-57407.54991,-0.02,0.096,-0.992,192,0,0,0,0,0,0,0,0,0,0
 2023-06-24 15:09:30.912,-39546.71795,28979.57313,1929.447285,21530.74253,17760.94201,-63927.93374,9347.007793,-57715.60165,-0.02,0.096,-0.992,192,0,0,0,0,0,0,0,0,0,0
 2023-06-24 15:09:30.912,-39532.39048,29834.77322,2785.876725,22355.07487,18609.39188,-64752.86958,10186.60637,-58205.21661,-0.02,0.09,-0.99,192,255,96,2,208,225,16,0,0,0,0
 2023-06-24 15:09:30.912,-39304.35798,30299.6448,3237.71724,22826.58491,19050.70472,-64749.338,10626.55576,-58215.47606,-0.02,0.09,-0.99,192,0,0,0,0,0,0,0,0,0,0
 2023-06-24 15:09:30.912,-39191.74989,29683.34015,2606.503976,22258.33652,18422.17367,-63904.21854,10001.91391,-57721.4131,-0.02,0.09,-0.99,192,0,0,0,0,0,0,0,0,0,0
 2023-06-24 15:09:30.912,-39375.52594,28851.36352,1781.746958,21437.84868,17600.16592,-63384.96517,9173.066517,-57406.70054,-0.02,0.09,-0.99,192,0,0,0,0,0,0,0,0,0,0
 2023-06-24 15:09:30.912,-39595.4671,29011.8714,1966.350015,21552.44607,17778.30932,-63908.59948,9368.711337,-57704.7834,-0.02,0.09,-0.99,192,0,0,0,0,0,0,0,0,0,0
 2023-06-24 15:09:30.912,-39582.23487,29850.03946,2812.564708,22375.41495,18624.32285,-64732.12716,10213.51787,-58193.83957,-0.02,0.09,-0.99,192,0,0,0,0,0,0,0,0,0,0
 2023-06-24 15:09:30.912,-39359.76796,30282.90335,3229.290632,22847.81907,19050.07887,-64747.72868,10644.90654,-58215.61017,-0.02,0.09,-0.99,192,0,0,0,0,0,0,0,0,0,0
 2023-06-24 15:09:30.912,-39243.33772,29697.53351,2623.133674,22283.0799,18440.70327,-63911.3711,10039.08486,-57726.17402,-0.02,0.09,-0.99,192,0,0,0,0,0,0,0,0,0,0
 2023-06-24 15:09:30.912,-39417.74838,28904.15834,1835.21233,21476.78542,17648.93742,-63376.11388,9231.225757,-57398.4751,-0.02,0.09,-0.99,192,0,0,0,0,0,0,0,0,0,0
 2023-06-24 15:09:30.912,-39631.65458,29080.80418,2028.510216,21620.26127,17837.80966,-63881.88915,9409.726788,-57686.00794,-0.02,0.09,-0.99,192,0,0,0,0,0,0,0,0,0,0
 2023-06-24 15:09:30.912,-39636.72842,29818.07647,2768.308254,22350.87274,18583.75443,-64718.582,10169.35082,-58187.40227,-0.02,0.09,-0.99,192,0,0,0,0,0,0,0,0,0,0
 2023-06-24 15:09:30.912,-39422.88928,30224.74411,3166.99632,22782.32846,18985.19176,-64755.28356,10574.47619,-58225.13202,-0.022,0.096,-0.994,192,255,80,3,0,224,240,0,0,0,0
 2023-06-24 15:09:30.912,-39295.14906,29736.15733,2661.623378,22313.47827,18474.78968,-63921.29528,10055.78161,-57736.25466,-0.022,0.096,-0.994,192,0,0,0,0,0,0,0,0,0,0
 2023-06-24 15:09:30.912,-39466.58694,28936.03193,1869.142278,21506.20031,17674.9772,-63371.06238,9260.528894,-57399.97267,-0.022,0.096,-0.994,192,0,0,0,0,0,0,0,0,0,0
 2023-06-24 15:09:30.912,-39687.95862,29043.43206,1996.033132,21585.4149,17800.34814,-63868.03107,9384.335206,-57682.34225,-0.022,0.096,-0.994,192,0,0,0,0,0,0,0,0,0,0
 2023-06-24 15:09:30.912,-39688.13743,29858.84605,2817.862072,22374.16325,18622.33354,-64698.37602,10225.14078,-58176.53932,-0.022,0.096,-0.994,192,0,0,0,0,0,0,0,0,0,0
 2023-06-24 15:09:30.912,-39477.65106,30255.4107,3194.936001,22797.14767,19007.29764,-64755.82001,10602.48293,-58226.8978,-0.022,0.096,-0.994,192,0,0,0,0,0,0,0,0,0,0
 2023-06-24 15:09:30.913,-39357.30926,29687.27406,2600.983095,22280.68826,18427.13576,-63946.15042,9992.883801,-57755.65597,-0.022,0.096,-0.994,192,0,0,0,0,0,0,0,0,0,0
 2023-06-24 15:09:30.913,-39524.85794,28894.07771,1811.787702,21482.79804,17638.81208,-63382.55118,9212.472643,-57410.67915,-0.022,0.096,-0.994,192,0,0,0,0,0,0,0,0,0,0
 2023-06-24 15:09:30.913,-39734.04792,29074.0316,2014.294507,21619.14368,17833.54048,-63853.16716,9426.177672,-57675.79319,-0.022,0.096,-0.994,192,0,0,0,0,0,0,0,0,0,0
 2023-06-24 15:09:30.913,-39737.40068,29888.41741,2836.793999,22413.8823,18656.17408,-64685.90375,10236.40606,-58171.04079,-0.022,0.096,-0.994,192,0,0,0,0,0,0,0,0,0,0
 2023-06-24 15:09:30.913,-39520.5217,30347.70105,3285.281752,22895.42829,19108.0146,-64753.54013,10689.18534,-58222.24864,-0.02,0.088,-0.99,192,255,96,2,192,225,16,0,0,0,0
 2023-06-24 15:09:30.913,-39387.23825,29834.34854,2753.243179,22427.49452,18584.78261,-63940.76365,10173.37414,-57746.62587,-0.02,0.088,-0.99,192,0,0,0,0,0,0,0,0,0,0
 2023-06-24 15:09:30.913,-39555.09985,28997.85686,1919.858386,21598.8483,17759.33269,-63360.31119,9337.754171,-57393.93769,-0.02,0.088,-0.99,192,0,0,0,0,0,0,0,0,0,0
 2023-06-24 15:09:30.913,-39782.5065,29063.77215,2003.208042,21629.22432,17837.09441,-63827.46265,9398.685026,-57662.02452,-0.02,0.088,-0.99,192,0,0,0,0,0,0,0,0,0,0
 2023-06-24 15:09:30.913,-39801.10315,29827.53126,2778.232429,22372.28571,18606.77673,-64672.15743,10186.11463,-58166.81631,-0.02,0.088,-0.99,192,0,0,0,0,0,0,0,0,0,0
 2023-06-24 15:09:30.913,-39583.55362,30339.54267,3276.005778,22900.36802,19106.78525,-64755.95412,10700.58473,-58229.55766,-0.02,0.088,-0.99,192,0,0,0,0,0,0,0,0,0,0
 2023-06-24 15:09:30.913,-39453.24295,29796.06,2709.098483,22390.36827,18541.7555,-63958.1086,10119.32762,-57766.87655,-0.02,0.088,-0.99,192,0,0,0,0,0,0,0,0,0,0
 2023-06-24 15:09:30.913,-39621.1269,28938.8706,1854.591293,21528.82028,17689.81876,-63360.95939,9276.398632,-57406.14175,-0.02,0.088,-0.99,192,0,0,0,0,0,0,0,0,0,0
 2023-06-24 15:09:30.913,-39844.68905,29023.31549,1958.817477,21564.04663,17791.02746,-63808.32956,9378.009662,-57658.69411,-0.02,0.088,-0.99,192,0,0,0,0,0,0,0,0,0,0
 2023-06-24 15:09:30.913,-39854.81439,29869.68665,2818.420865,22393.40811,18649.13328,-64644.73184,10233.85796,-58153.8076,-0.02,0.088,-0.99,192,0,0,0,0,0,0,0,0,0,0
 2023-06-24 15:09:30.913,-39649.96065,30319.96254,3255.486876,22878.17274,19085.26052,-64753.60718,10643.31956,-58231.54697,-0.016,0.092,-0.986,192,255,128,2,224,225,48,0,0,0,0
 2023-06-24 15:09:30.913,-39516.81131,29818.4788,2732.50076,22410.32838,18562.76614,-63965.03764,10135.35382,-57772.57625,-0.016,0.092,-0.986,192,0,0,0,0,0,0,0,0,0,0
 2023-06-24 15:09:30.913,-39686.05872,28935.98723,1850.545627,21536.44222,17689.46113,-63358.85833,9281.852458,-57406.54408,-0.016,0.092,-0.986,192,0,0,0,0,0,0,0,0,0,0
 2023-06-24 15:09:30.913,-39911.14079,29016.74408,1946.456962,21594.42265,17798.80587,-63794.15855,9393.812346,-57653.84378,-0.016,0.092,-0.986,192,0,0,0,0,0,0,0,0,0,0
 2023-06-24 15:09:30.913,-39921.46729,29906.65643,2846.852284,22451.65675,18686.52775,-64627.09631,10257.68492,-58147.19148,-0.016,0.092,-0.986,192,0,0,0,0,0,0,0,0,0,0
 2023-06-24 15:09:30.913,-39712.29967,30411.53764,3335.394363,22964.65164,19166.21854,-64746.54403,10715.38159,-58232.53044,-0.016,0.092,-0.986,192,0,0,0,0,0,0,0,0,0,0
 2023-06-24 15:09:30.913,-39577.89863,29884.75172,2791.151737,22467.41473,18623.1382,-63972.57018,10186.82989,-57786.1214,-0.016,0.092,-0.986,192,0,0,0,0,0,0,0,0,0,0
 2023-06-24 15:09:30.913,-39735.1655,29057.51366,1969.412204,21654.79471,17814.80972,-63345.33552,9405.390549,-57406.92406,-0.016,0.092,-0.986,192,0,0,0,0,0,0,0,0,0,0
 2023-06-24 15:09:30.913,-39968.18244,29091.3095,2020.552995,21656.22522,17865.14585,-63766.28593,9459.884102,-57647.16061,-0.016,0.092,-0.986,192,0,0,0,0,0,0,0,0,0,0
 2023-06-24 15:09:30.913,-39997.23971,29873.73231,2812.363543,22416.09513,18651.77079,-64609.6396,10237.14366,-58148.64435,-0.016,0.092,-0.986,192,0,0,0,0,0,0,0,0,0,0
 2023-06-24 15:09:30.913,-39800.3879,30334.8935,3255.933911,22902.6926,19106.36057,-64751.01438,10687.91129,-58249.11544,-0.016,0.094,-0.988,192,255,128,2,240,225,32,0,0,0,0
 2023-06-24 15:09:30.913,-39666.88093,29829.3641,2728.052763,22432.05427,18586.52605,-63989.73632,10167.89796,-57811.7365,-0.016,0.094,-0.988,192,0,0,0,0,0,0,0,0,0,0
 2023-06-24 15:09:30.913,-39824.30426,29005.50115,1912.325849,21604.36918,17768.69807,-63352.04105,9350.226444,-57425.69952,-0.016,0.094,-0.988,192,0,0,0,0,0,0,0,0,0,0
 2023-06-24 15:09:30.913,-40054.86251,29045.89075,1972.228524,21620.23891,17828.53369,-63755.6912,9421.953192,-57652.94971,-0.016,0.094,-0.988,192,0,0,0,0,0,0,0,0,0,0
 2023-06-24 15:09:30.913,-40091.11704,29786.22523,2720.743742,22338.98161,18576.87009,-64601.14594,10166.4898,-58155.1487,-0.016,0.094,-0.988,192,0,0,0,0,0,0,0,0,0,0
 2023-06-24 15:09:30.913,-39897.17095,30250.82859,3171.824297,22835.23504,19037.29368,-64758.50222,10637.91044,-58263.04057,-0.016,0.094,-0.988,192,0,0,0,0,0,0,0,0,0,0
 2023-06-24 15:09:30.913,-39756.80199,29799.41276,2702.839995,22422.24186,18567.39295,-64006.05309,10155.6045,-57826.511,-0.016,0.094,-0.988,192,0,0,0,0,0,0,0,0,0,0
 2023-06-24 15:09:30.913,-39906.84925,29004.69649,1918.785503,21621.75883,17777.86228,-63351.14698,9362.788124,-57425.96774,-0.016,0.094,-0.988,192,0,0,0,0,0,0,0,0,0,0
 2023-06-24 15:09:30.913,-40137.18398,29040.0793,1975.849506,21621.3565,17830.41124,-63737.18396,9422.109654,-57642.04206,-0.016,0.094,-0.988,192,0,0,0,0,0,0,0,0,0,0
 2023-06-24 15:09:30.913,-40174.24317,29806.31945,2752.147943,22362.96503,18605.59208,-64581.78932,10191.99314,-58142.967,-0.016,0.094,-0.988,192,0,0,0,0,0,0,0,0,0,0
 2023-06-24 15:09:30.913,-39979.40302,30297.32022,3224.283841,22869.09793,19083.02535,-64754.07657,10671.70628,-58259.08432,-0.016,0.098,-0.988,192,255,128,3,16,225,32,0,0,0,0
 2023-06-24 15:09:30.913,-39834.45195,29825.81017,2732.858388,22419.80552,18584.6485,-64013.13859,10167.85326,-57831.80837,-0.016,0.098,-0.988,192,0,0,0,0,0,0,0,0,0,0
 2023-06-24 15:09:30.913,-39984.34275,28954.82975,1860.603912,21543.48302,17713.55632,-63348.48712,9305.813528,-57426.97357,-0.016,0.098,-0.988,192,0,0,0,0,0,0,0,0,0,0
 2023-06-24 15:09:30.913,-40213.02345,28966.72088,1884.229706,21521.4442,17736.22098,-63719.95076,9316.408255,-57633.95073,-0.016,0.098,-0.988,192,0,0,0,0,0,0,0,0,0,0
 2023-06-24 15:09:30.913,-40257.43637,29692.37026,2616.741075,22232.63201,18469.11233,-64570.41229,10047.9138,-58137.15555,-0.016,0.098,-0.988,192,0,0,0,0,0,0,0,0,0,0
 2023-06-24 15:09:30.913,-40058.72936,30242.55845,3154.792268,22800.25456,19006.82825,-64755.50708,10594.90569,-58258.65963,-0.016,0.098,-0.988,192,0,0,0,0,0,0,0,0,0,0
 2023-06-24 15:09:30.913,-39902.42361,29864.12106,2761.915655,22455.88123,18619.96426,-64015.75375,10200.93384,-57830.08728,-0.016,0.098,-0.988,192,0,0,0,0,0,0,0,0,0,0
 2023-06-24 15:09:30.913,-40052.35911,28986.99391,1889.012979,21591.36046,17754.90704,-63336.17131,9341.777485,-57416.35649,-0.016,0.098,-0.988,192,0,0,0,0,0,0,0,0,0,0
 2023-06-24 15:09:30.913,-40292.08157,28945.37496,1865.387185,21520.17015,17732.01886,-63695.16268,9327.025333,-57616.67283,-0.016,0.098,-0.988,192,0,0,0,0,0,0,0,0,0,0
 2023-06-24 15:09:30.913,-40343.35647,29680.21091,2613.544776,22237.83997,18471.83925,-64544.21604,10053.50173,-58119.96706,-0.016,0.098,-0.988,192,0,0,0,0,0,0,0,0,0,0
 2023-06-24 15:09:30.913,-40154.61834,30226.35343,3144.644576,22812.03393,19010.80686,-64747.48281,10580.01942,-58252.60231,-0.022,0.096,-0.99,192,255,80,3,0,225,16,0,0,0,0
 2023-06-24 15:09:30.913,-40007.63327,29805.71595,2708.606745,22413.1894,18567.99645,-64026.77316,10132.55985,-57836.72575,-0.022,0.096,-0.99,192,0,0,0,0,0,0,0,0,0,0
 2023-06-24 15:09:30.913,-40152.65139,28958.31662,1865.18602,21565.70066,17722.09468,-63326.87298,9294.414138,-57411.32735,-0.022,0.096,-0.99,192,0,0,0,0,0,0,0,0,0,0
 2023-06-24 15:09:30.913,-40397.44769,28896.26818,1820.102551,21482.12749,17673.09966,-63670.86633,9239.004164,-57603.86528,-0.022,0.096,-0.99,192,0,0,0,0,0,0,0,0,0,0
 2023-06-24 15:09:30.913,-40457.48448,29608.03713,2541.527455,22172.66228,18391.99881,-64526.11113,9966.240521,-58111.67456,-0.022,0.096,-0.99,192,0,0,0,0,0,0,0,0,0,0
 2023-06-24 15:09:30.914,-40263.40428,30229.1027,3155.373413,22799.00286,19006.1577,-64739.88321,10595.88916,-58250.68006,-0.022,0.096,-0.99,192,0,0,0,0,0,0,0,0,0,0
 2023-06-24 15:09:30.914,-40104.57279,29863.07053,2771.817478,22456.93176,18617.17029,-64025.9685,10213.24965,-57839.87735,-0.022,0.096,-0.99,192,0,0,0,0,0,0,0,0,0,0
 2023-06-24 15:09:30.914,-40247.19927,28973.53816,1881.636903,21576.00481,17725.73802,-63321.24034,9320.811548,-57415.57418,-0.022,0.096,-0.99,192,0,0,0,0,0,0,0,0,0,0
 2023-06-24 15:09:30.914,-40485.62532,28924.72195,1850.255054,21499.83007,17695.89844,-63643.35133,9302.751339,-57596.55626,-0.022,0.096,-0.99,192,0,0,0,0,0,0,0,0,0,0
 2023-06-24 15:09:30.914,-40538.68837,29686.60351,2624.675944,22237.92937,18464.32906,-64487.06263,10059.80492,-58095.5813,-0.022,0.096,-0.99,192,0,0,0,0,0,0,0,0,0,0
 2023-06-24 15:09:30.914,-40348.76559,30279.48353,3207.60944,22843.41578,19041.74167,-64720.4372,10649.10867,-58246.92497,-0.022,0.098,-0.99,192,255,80,3,16,225,16,0,0,0,0
 2023-06-24 15:09:30.914,-40196.57257,29875.36399,2785.608504,22470.8122,18617.08088,-64026.81786,10224.58198,-57848.70629,-0.022,0.098,-0.99,192,0,0,0,0,0,0,0,0,0,0
 2023-06-24 15:09:30.914,-40341.68009,28967.6373,1875.668988,21551.84258,17699.60883,-63315.20537,9287.90978,-57418.25639,-0.022,0.098,-0.99,192,0,0,0,0,0,0,0,0,0,0
 2023-06-24 15:09:30.914,-40584.10711,28906.2147,1826.830426,21455.05952,17655.17356,-63625.93932,9238.646536,-57590.78951,-0.022,0.098,-0.99,192,0,0,0,0,0,0,0,0,0,0
 2023-06-24 15:09:30.914,-40646.15555,29640.67067,2564.5274,22204.44646,18415.40109,-64474.88093,9990.134536,-58091.37918,-0.022,0.098,-0.99,192,0,0,0,0,0,0,0,0,0,0
 2023-06-24 15:09:30.914,-40465.46405,30209.67903,3118.917718,22780.3168,18974.41822,-64730.78605,10571.9728,-58254.27869,-0.022,0.098,-0.99,192,0,0,0,0,0,0,0,0,0,0
 2023-06-24 15:09:30.914,-40300.7764,29883.29886,2774.991426,22471.57216,18629.12847,-64041.88294,10229.09704,-57854.80831,-0.022,0.098,-0.99,192,0,0,0,0,0,0,0,0,0,0
 2023-06-24 15:09:30.914,-40427.15316,29026.22122,1921.937099,21624.97748,17772.45316,-63305.59412,9350.673479,-57407.21463,-0.022,0.098,-0.99,192,0,0,0,0,0,0,0,0,0,0
 2023-06-24 15:09:30.914,-40668.48495,28946.09021,1854.837162,21515.76686,17708.52717,-63598.84901,9262.115867,-57570.1365,-0.022,0.098,-0.99,192,0,0,0,0,0,0,0,0,0,0
 2023-06-24 15:09:30.914,-40735.54018,29680.61324,2598.434996,22216.11407,18447.96758,-64443.94612,10008.44061,-58071.28496,-0.022,0.098,-0.99,192,0,0,0,0,0,0,0,0,0,0
 2023-06-24 15:09:30.914,-40562.62708,30244.68186,3155.149896,22788.0058,18996.25587,-64718.55965,10560.17107,-58248.10961,-0.024,0.094,-0.99,192,255,64,2,240,225,16,0,0,0,0
 2023-06-24 15:09:30.914,-40401.9851,29892.53013,2783.88742,22470.164,18627.67561,-64048.4767,10195.77059,-57862.16204,-0.024,0.094,-0.99,192,0,0,0,0,0,0,0,0,0,0
 2023-06-24 15:09:30.914,-40518.41533,29084.9169,1974.240181,21670.6421,17823.90688,-63299.62621,9408.184517,-57405.49355,-0.024,0.094,-0.99,192,0,0,0,0,0,0,0,0,0,0
 2023-06-24 15:09:30.914,-40761.06587,28985.36223,1892.544555,21539.79499,17740.82544,-63580.52058,9324.097255,-57560.01116,-0.024,0.094,-0.99,192,0,0,0,0,0,0,0,0,0,0
 2023-06-24 15:09:30.914,-40832.05501,29703.34497,2621.122017,22235.40363,18467.32419,-64423.96366,10045.85743,-58056.24223,-0.024,0.094,-0.99,192,0,0,0,0,0,0,0,0,0,0
 2023-06-24 15:09:30.914,-40655.63269,30292.91693,3203.094387,22837.20199,19047.2402,-64707.0932,10627.33807,-58235.12325,-0.024,0.094,-0.99,192,0,0,0,0,0,0,0,0,0,0
 2023-06-24 15:09:30.914,-40482.31727,30021.14207,2915.963878,22593.61268,18754.20883,-64040.69829,10341.50396,-57851.05322,-0.024,0.094,-0.99,192,0,0,0,0,0,0,0,0,0,0
 2023-06-24 15:09:30.914,-40603.53078,29156.12956,2050.861961,21733.13758,17882.64726,-63291.69134,9473.920998,-57396.50814,-0.024,0.094,-0.99,192,0,0,0,0,0,0,0,0,0,0
 2023-06-24 15:09:30.914,-40844.92962,29078.45725,1985.863088,21627.41382,17822.81164,-63555.33016,9416.119387,-57540.22986,-0.024,0.094,-0.99,192,0,0,0,0,0,0,0,0,0,0
 2023-06-24 15:09:30.914,-40928.21222,29727.79777,2648.815828,22260.0129,18487.64193,-64403.55651,10078.98272,-58042.3171,-0.024,0.094,-0.99,192,0,0,0,0,0,0,0,0,0,0
 2023-06-24 15:09:30.914,-40754.40505,30318.37557,3234.811513,22863.28648,19064.96514,-64701.79584,10653.28844,-58232.35163,-0.022,0.1,-0.992,192,255,80,3,32,225,0,0,0,0,0
 2023-06-24 15:09:30.914,-40589.0692,29977.10913,2875.730738,22551.27848,18702.15162,-64059.11613,10297.29221,-57864.73249,-0.022,0.1,-0.992,192,0,0,0,0,0,0,0,0,0,0
 2023-06-24 15:09:30.914,-40701.94551,29125.8653,2021.536472,21711.61285,17850.25958,-63298.91095,9451.278681,-57403.92892,-0.022,0.1,-0.992,192,0,0,0,0,0,0,0,0,0,0
 2023-06-24 15:09:30.914,-40936.70588,29064.62152,1980.431614,21611.65584,17799.61053,-63541.24856,9402.730692,-57535.24542,-0.022,0.1,-0.992,192,0,0,0,0,0,0,0,0,0,0
 2023-06-24 15:09:30.914,-41010.31017,29781.17374,2708.115006,22295.93215,18519.06848,-64379.21546,10118.96999,-58029.06251,-0.022,0.1,-0.992,192,0,0,0,0,0,0,0,0,0,0
