 Timestamp_formatted, EXG Channel 0, EXG Channel 1, EXG Channel 2, EXG Channel 3, EXG Channel 4, EXG Channel 5, EXG Channel 6, EXG Channel 7, Accel Channel 0, Accel Channel 1, Accel Channel 2, Other, Other.1, Other.2, Other.3, Other.4, Other.5, Other.6, Analog Channel 0, Analog Channel 1, Analog Channel 2, Other.7
 2023-06-24 15:04:55.778,0.0,0.0,0.0,0.0,0.0,0.0,0.0,0.0,-0.018,0.094,-0.992,192,255,112,2,240,225,0,0,0,0,0
 2023-06-24 15:04:55.794,-75433.76242,36628.87652,9088.53222,33265.49778,26224.83238,-51357.69264,20353.63261,-65156.92206,-0.018,0.094,-0.992,192,0,0,0,0,0,0,0,0,0,0
 2023-06-24 15:04:56.272,-75512.10529,38079.99648,10542.15557,34663.35352,27677.74048,-52623.15901,21811.36868,-65978.61689,-0.018,0.094,-0.992,192,0,0,0,0,0,0,0,0,0,0
 2023-06-24 15:04:56.272,-75245.33722,38410.73524,10839.94786,35081.26409,27985.99338,-52632.18911,22110.30091,-65967.39632,-0.018,0.094,-0.992,192,0,0,0,0,0,0,0,0,0,0
 2023-06-24 15:04:56.273,-74981.16195,37054.43139,9454.184407,33844.8997,26609.77413,-51302.48383,20735.66863,-65080.36734,-0.018,0.094,-0.992,192,0,0,0,0,0,0,0,0,0,0
 2023-06-24 15:04:56.273,-75108.14221,35923.27665,8341.760438,32697.27173,25497.77484,-50542.43511,19619.15429,-64603.40346,-0.018,0.094,-0.992,192,0,0,0,0,0,0,0,0,0,0
 2023-06-24 15:04:56.273,-75423.07829,36504.60082,8950.823122,33157.22593,26105.25055,-51366.1416,20229.40162,-65156.02799,-0.018,0.094,-0.992,192,0,0,0,0,0,0,0,0,0,0
 2023-06-24 15:04:56.273,-75502.56109,38003.79938,10461.91281,34586.61998,27604.42675,-52627.02586,21729.78481,-65975.06296,-0.018,0.094,-0.992,192,0,0,0,0,0,0,0,0,0,0
 2023-06-24 15:04:56.273,-75232.41791,38412.56808,10850.85551,35067.65188,27990.59784,-52638.73817,22120.76153,-65964.55764,-0.018,0.09,-0.996,192,255,112,2,208,224,224,0,0,0,0
 2023-06-24 15:04:56.273,-74956.15035,37128.21449,9537.735228,33905.2047,26685.27832,-51305.99306,20821.96871,-65074.91351,-0.018,0.09,-0.996,192,0,0,0,0,0,0,0,0,0,0
 2023-06-24 15:04:56.273,-75081.83421,35962.36985,8386.732148,32737.99661,25542.36657,-50533.53912,19679.4593,-64589.09834,-0.018,0.09,-0.996,192,0,0,0,0,0,0,0,0,0,0
 2023-06-24 15:04:56.273,-75406.06861,36479.47746,8937.747352,33137.42228,26088.84437,-51354.92103,20220.59503,-65139.93474,-0.018,0.09,-0.996,192,0,0,0,0,0,0,0,0,0,0
 2023-06-24 15:04:56.273,-75489.50767,37988.37668,10454.04499,34576.22642,27600.53755,-52621.66144,21718.89951,-65963.50711,-0.018,0.09,-0.996,192,0,0,0,0,0,0,0,0,0,0
 2023-06-24 15:04:56.273,-75205.66287,38526.98666,10964.96117,35188.97714,28109.73264,-52636.21242,22215.08589,-65954.16408,-0.018,0.09,-0.996,192,0,0,0,0,0,0,0,0,0,0
 2023-06-24 15:04:56.273,-74943.76748,37143.48074,9553.180284,33938.59821,26703.76321,-51325.1038,20815.37495,-65082.82603,-0.018,0.09,-0.996,192,0,0,0,0,0,0,0,0,0,0
 2023-06-24 15:04:56.273,-75070.256,35934.98897,8359.463019,32698.34461,25511.56587,-50543.77622,19646.31166,-64593.38988,-0.018,0.09,-0.996,192,0,0,0,0,0,0,0,0,0,0
 2023-06-24 15:04:56.273,-75384.34272,36493.33554,8946.911567,33139.25512,26098.16505,-51347.38849,20228.75342,-65133.56449,-0.018,0.09,-0.996,192,0,0,0,0,0,0,0,0,0,0
 2023-06-24 15:04:56.273,-75473.43677,37968.34951,10431.87206,34554.25466,27575.77182,-52621.34851,21698.02299,-65961.18253,-0.018,0.09,-0.996,192,0,0,0,0,0,0,0,0,0,0
 2023-06-24 15:04:56.273,-75204.00884,38440.37365,10884.38313,35090.96475,28015.18476,-52655.52433,22132.65266,-65965.9658,-0.016,0.09,-0.992,192,255,128,2,208,225,0,0,0,0,0
 2023-06-24 15:04:56.273,-74934.08918,37136.23877,9554.320223,33898.87916,26683.98192,-51341.7335,20807.95417,-65090.33621,-0.016,0.09,-0.992,192,0,0,0,0,0,0,0,0,0,0
 2023-06-24 15:04:56.273,-75054.52038,35945.6284,8380.853639,32700.62449,25520.90889,-50547.50896,19652.6372,-64588.69601,-0.016,0.09,-0.992,192,0,0,0,0,0,0,0,0,0,0
 2023-06-24 15:04:56.273,-75367.66831,36486.18299,8948.945576,33139.38923,26096.75689,-51342.73932,20229.06634,-65123.68502,-0.016,0.09,-0.992,192,0,0,0,0,0,0,0,0,0,0
 2023-06-24 15:04:56.273,-75466.99947,37898.88029,10369.35423,34493.52497,27513.23164,-52627.15997,21642.5236,-65958.1874,-0.016,0.09,-0.992,192,0,0,0,0,0,0,0,0,0,0
 2023-06-24 15:04:56.273,-75192.47534,38414.06565,10856.48815,35067.83069,27998.04097,-52671.72935,22135.06664,-65966.5246,-0.016,0.09,-0.992,192,0,0,0,0,0,0,0,0,0,0
 2023-06-24 15:04:56.273,-74905.65776,37186.50784,9601.392996,33963.431,26754.34521,-51355.12219,20881.22319,-65086.93875,-0.016,0.09,-0.992,192,0,0,0,0,0,0,0,0,0,0
 2023-06-24 15:04:56.274,-75009.97335,36037.58347,8466.192599,32812.71849,25635.6404,-50538.68002,19751.87895,-64569.92055,-0.016,0.09,-0.992,192,0,0,0,0,0,0,0,0,0,0
 2023-06-24 15:04:56.274,-75320.26026,36569.39853,9029.098931,33224.2141,26187.43791,-51324.16503,20304.30231,-65097.66759,-0.016,0.09,-0.992,192,0,0,0,0,0,0,0,0,0,0
 2023-06-24 15:04:56.274,-75404.88397,38091.59703,10559.34406,34681.41373,27714.84437,-52598.21446,21824.93619,-65924.65978,-0.016,0.09,-0.992,192,0,0,0,0,0,0,0,0,0,0
 2023-06-24 15:04:56.274,-75135.81367,38582.5531,11021.84636,35250.89148,28180.9453,-52655.65844,22290.45597,-65942.27295,-0.018,0.096,-0.99,192,255,112,3,0,225,16,0,0,0,0
 2023-06-24 15:04:56.274,-74867.101,37246.41052,9654.120762,34037.19175,26819.14292,-51360.10663,20942.914,-65080.85907,-0.018,0.096,-0.99,192,0,0,0,0,0,0,0,0,0,0
 2023-06-24 15:04:56.274,-74980.87138,36030.8556,8450.993413,32815.28894,25624.88921,-50541.02695,19747.90034,-64565.51725,-0.018,0.096,-0.99,192,0,0,0,0,0,0,0,0,0,0
 2023-06-24 15:04:56.274,-75293.08054,36556.52393,9014.883222,33215.38516,26169.73533,-51316.63249,20284.96805,-65088.74924,-0.018,0.096,-0.99,192,0,0,0,0,0,0,0,0,0,0
 2023-06-24 15:04:56.274,-75384.02979,38049.70986,10519.82618,34638.96777,27663.23419,-52593.90057,21773.99656,-65919.87651,-0.018,0.096,-0.99,192,0,0,0,0,0,0,0,0,0,0
 2023-06-24 15:04:56.274,-75118.51342,38515.81079,10955.26051,35182.89747,28104.59174,-52664.93442,22227.06642,-65949.82784,-0.018,0.096,-0.99,192,0,0,0,0,0,0,0,0,0,0
 2023-06-24 15:04:56.274,-74838.46841,37235.63698,9647.929328,34020.495,26796.09827,-51367.12508,20933.9286,-65087.47519,-0.018,0.096,-0.99,192,0,0,0,0,0,0,0,0,0,0
 2023-06-24 15:04:56.274,-74949.40012,36023.05484,8453.295643,32781.06842,25603.00685,-50535.08139,19753.53298,-64561.78451,-0.018,0.096,-0.99,192,0,0,0,0,0,0,0,0,0,0
 2023-06-24 15:04:56.274,-75256.89307,36571.45489,9033.256356,33210.22191,26177.08906,-51299.5334,20320.44027,-65074.89116,-0.018,0.096,-0.99,192,0,0,0,0,0,0,0,0,0,0
 2023-06-24 15:04:56.274,-75351.79858,38055.05193,10525.59293,34643.68399,27668.82213,-52583.12703,21794.87309,-65910.62288,-0.018,0.096,-0.99,192,0,0,0,0,0,0,0,0,0,0
 2023-06-24 15:04:56.274,-75087.69036,38551.26066,10993.48199,35226.72924,28145.83071,-52665.13558,22268.3501,-65945.62572,-0.022,0.1,-0.988,192,255,80,3,32,225,32,0,0,0,0
 2023-06-24 15:04:56.274,-74813.45681,37226.94215,9642.207282,34026.68643,26799.7416,-51380.89375,20924.22794,-65092.23611,-0.022,0.1,-0.988,192,0,0,0,0,0,0,0,0,0,0
 2023-06-24 15:04:56.274,-74920.52167,36016.46108,8446.746581,32794.2336,25600.27994,-50537.04834,19734.19872,-64557.73885,-0.022,0.1,-0.988,192,0,0,0,0,0,0,0,0,0,0
 2023-06-24 15:04:56.274,-75226.22648,36560.48018,9022.304001,33217.75445,26164.01329,-51289.36336,20297.35092,-65063.78234,-0.022,0.1,-0.988,192,0,0,0,0,0,0,0,0,0,0
 2023-06-24 15:04:56.274,-75336.44293,37950.04343,10419.28803,34554.61229,27563.70188,-52585.29515,21699.58761,-65909.37119,-0.022,0.1,-0.988,192,0,0,0,0,0,0,0,0,0,0
 2023-06-24 15:04:56.274,-75079.53198,38433.77989,10875.88947,35118.05506,28033.73671,-52682.637,22173.66811,-65954.58877,-0.022,0.1,-0.988,192,0,0,0,0,0,0,0,0,0,0
 2023-06-24 15:04:56.274,-74788.93695,37207.36202,9619.341447,34021.25496,26793.77369,-51392.33785,20919.2435,-65097.35466,-0.022,0.1,-0.988,192,0,0,0,0,0,0,0,0,0,0
 2023-06-24 15:04:56.274,-74888.78219,35985.95095,8409.799148,32801.07323,25595.96605,-50535.2602,19719.53597,-64556.15187,-0.022,0.1,-0.988,192,0,0,0,0,0,0,0,0,0,0
 2023-06-24 15:04:56.274,-75198.62207,36485.7136,8943.402343,33182.88573,26124.40599,-51283.88718,20245.71839,-65060.38488,-0.022,0.1,-0.988,192,0,0,0,0,0,0,0,0,0,0
 2023-06-24 15:04:56.274,-75299.80842,37962.71687,10429.59218,34580.96499,27598.95058,-52571.54883,21721.29115,-65897.65887,-0.022,0.1,-0.988,192,0,0,0,0,0,0,0,0,0,0
 2023-06-24 15:04:56.274,-75037.53305,38490.2851,10931.99234,35167.20655,28093.88525,-52673.80806,22226.39587,-65946.0951,-0.024,0.096,-0.988,192,255,64,3,0,225,32,0,0,0,0
 2023-06-24 15:04:56.274,-74746.51334,37251.3279,9662.994404,34051.60863,26830.89993,-51391.93551,20972.99945,-65094.76186,-0.024,0.096,-0.988,192,0,0,0,0,0,0,0,0,0,0
 2023-06-24 15:04:56.274,-74831.60643,36064.89731,8491.561829,32862.04879,25668.11748,-50514.40603,19805.36667,-64538.89633,-0.024,0.096,-0.988,192,0,0,0,0,0,0,0,0,0,0
 2023-06-24 15:04:56.274,-75130.80688,36581.96021,9032.854025,33266.14598,26211.75661,-51248.79494,20339.90864,-65034.76978,-0.024,0.096,-0.988,192,0,0,0,0,0,0,0,0,0,0
 2023-06-24 15:04:56.274,-75230.71918,38040.79152,10499.17316,34650.97066,27669.09035,-52544.39146,21797.93528,-65880.35862,-0.024,0.096,-0.988,192,0,0,0,0,0,0,0,0,0,0
 2023-06-24 15:04:56.274,-74966.02982,38584.72122,11024.39446,35257.21702,28187.80728,-52658.49711,22316.11577,-65938.51786,-0.024,0.096,-0.988,192,0,0,0,0,0,0,0,0,0,0
 2023-06-24 15:04:56.274,-74671.38912,37356.93989,9772.160324,34159.12052,26940.62465,-51384.38062,21054.13628,-65094.0466,-0.024,0.096,-0.988,192,0,0,0,0,0,0,0,0,0,0
 2023-06-24 15:04:56.274,-74777.89519,35980.78769,8407.13929,32783.72828,25580.16337,-50516.48474,19701.11814,-64547.16647,-0.024,0.096,-0.988,192,0,0,0,0,0,0,0,0,0,0
 2023-06-24 15:04:56.274,-75088.51738,36425.58741,8880.996273,33112.88006,26057.48487,-51248.10204,20183.53584,-65042.70465,-0.024,0.096,-0.988,192,0,0,0,0,0,0,0,0,0,0
 2023-06-24 15:04:56.274,-75182.57352,37957.2407,10425.2783,34567.95628,27591.86507,-52535.76369,21719.10068,-65880.7386,-0.024,0.096,-0.988,192,0,0,0,0,0,0,0,0,0,0
 2023-06-24 15:04:56.274,-74924.41087,38485.30066,10929.35484,35157.55059,28089.61607,-52663.97329,22221.0091,-65947.88324,-0.026,0.094,-0.99,192,255,48,2,240,225,16,0,0,0,0
 2023-06-24 15:04:56.275,-74625.34453,37300.45704,9711.408283,34091.5512,26876.69866,-51395.04241,21016.89828,-65104.239,-0.026,0.094,-0.99,192,0,0,0,0,0,0,0,0,0,0
 2023-06-24 15:04:56.275,-74710.19175,36046.16654,8468.539532,32838.33359,25640.62484,-50499.98915,19773.29192,-64536.32588,-0.026,0.094,-0.99,192,0,0,0,0,0,0,0,0,0,0
 2023-06-24 15:04:56.275,-75020.45632,36477.77873,8928.270212,33157.38239,26098.74619,-51221.54817,20232.01677,-65024.42092,-0.026,0.094,-0.99,192,0,0,0,0,0,0,0,0,0,0
 2023-06-24 15:04:56.275,-75125.48716,37944.09787,10407.59807,34554.41112,27568.21693,-52522.15147,21697.73241,-65871.52968,-0.026,0.094,-0.99,192,0,0,0,0,0,0,0,0,0,0
 2023-06-24 15:04:56.275,-74871.16902,38470.81673,10915.83203,35144.51953,28070.17005,-52665.06853,22209.00622,-65947.07858,-0.026,0.094,-0.99,192,0,0,0,0,0,0,0,0,0,0
 2023-06-24 15:04:56.275,-74581.42335,37226.24924,9646.655279,34020.98674,26801.26152,-51410.88979,20941.84112,-65114.90078,-0.026,0.094,-0.99,192,0,0,0,0,0,0,0,0,0,0
 2023-06-24 15:04:56.275,-74657.97808,35990.35424,8428.01582,32779.25793,25585.43838,-50495.00471,19724.18514,-64533.75543,-0.026,0.094,-0.99,192,0,0,0,0,0,0,0,0,0,0
 2023-06-24 15:04:56.275,-74963.19115,36434.32694,8902.476299,33118.19978,26062.20109,-51199.44229,20190.24136,-65012.32863,-0.026,0.094,-0.99,192,0,0,0,0,0,0,0,0,0,0
 2023-06-24 15:04:56.275,-75065.53979,37949.88697,10424.00425,34560.02141,27585.15955,-52497.96689,21730.2095,-65858.94565,-0.026,0.094,-0.99,192,0,0,0,0,0,0,0,0,0,0
 2023-06-24 15:04:56.275,-74809.70172,38513.4415,10961.31783,35192.35226,28126.98819,-52651.3222,22278.18486,-65941.87062,-0.02,0.094,-0.986,192,255,96,2,240,225,48,0,0,0,0
 2023-06-24 15:04:56.275,-74513.80932,37303.74274,9718.113806,34105.94572,26887.09222,-51403.11139,21033.21505,-65114.18553,-0.02,0.094,-0.986,192,0,0,0,0,0,0,0,0,0,0
 2023-06-24 15:04:56.275,-74594.02974,36008.79443,8434.855453,32801.07323,25602.89509,-50483.27005,19748.03445,-64532.54843,-0.02,0.094,-0.986,192,0,0,0,0,0,0,0,0,0,0
 2023-06-24 15:04:56.275,-74902.28264,36425.43094,8885.421918,33114.93643,26052.23221,-51180.9127,20172.51643,-65008.68529,-0.02,0.094,-0.986,192,0,0,0,0,0,0,0,0,0,0
 2023-06-24 15:04:56.275,-75009.57102,37930.12803,10402.47952,34542.76586,27564.86417,-52483.10298,21686.10951,-65859.5715,-0.02,0.094,-0.986,192,0,0,0,0,0,0,0,0,0,0
 2023-06-24 15:04:56.275,-74760.81845,38485.16655,10930.31596,35161.59626,28095.49458,-52648.39413,22227.87109,-65950.74427,-0.02,0.094,-0.986,192,0,0,0,0,0,0,0,0,0,0
 2023-06-24 15:04:56.275,-74461.48389,37331.95064,9749.361545,34123.49184,26903.87838,-51399.19983,21042.28986,-65120.82399,-0.02,0.094,-0.986,192,0,0,0,0,0,0,0,0,0,0
 2023-06-24 15:04:56.275,-74546.86756,36002.24537,8433.112017,32793.76421,25590.46752,-50472.4518,19737.05974,-64534.18011,-0.02,0.094,-0.986,192,0,0,0,0,0,0,0,0,0,0
 2023-06-24 15:04:56.275,-74862.0495,36387.6565,8848.005098,33062.34277,26003.19248,-51167.25578,20145.26965,-65006.71834,-0.02,0.094,-0.986,192,0,0,0,0,0,0,0,0,0,0
 2023-06-24 15:04:56.275,-74976.66925,37877.93671,10348.81298,34475.15183,27498.52419,-52477.44798,21634.52168,-65859.41504,-0.02,0.094,-0.986,192,0,0,0,0,0,0,0,0,0,0
 2023-06-24 15:04:56.275,-74726.59793,38483.22195,10930.33831,35152.83437,28079.22251,-52653.2221,22211.12963,-65955.54989,-0.022,0.09,-0.986,192,255,80,2,208,225,48,0,0,0,0
 2023-06-24 15:04:56.275,-74432.8066,37299.49591,9716.593887,34100.11191,26875.69283,-51418.75761,21030.13051,-65135.82201,-0.022,0.09,-0.986,192,0,0,0,0,0,0,0,0,0,0
 2023-06-24 15:04:56.275,-74509.92012,35983.02287,8413.442482,32782.54363,25575.71537,-50483.73943,19742.84884,-64542.53966,-0.022,0.09,-0.986,192,0,0,0,0,0,0,0,0,0,0
 2023-06-24 15:04:56.275,-74810.41697,36419.28421,8881.59977,33095.37865,26037.2789,-51157.53277,20194.46584,-65001.1304,-0.022,0.09,-0.986,192,0,0,0,0,0,0,0,0,0,0
 2023-06-24 15:04:56.275,-74924.00854,37901.47309,10374.58454,34505.4161,27525.36863,-52464.52868,21668.11635,-65856.35285,-0.022,0.09,-0.986,192,0,0,0,0,0,0,0,0,0,0
 2023-06-24 15:04:56.275,-74676.2171,38491.96148,10947.32564,35158.9364,28089.48196,-52651.2328,22229.74863,-65964.37883,-0.022,0.09,-0.986,192,0,0,0,0,0,0,0,0,0,0
 2023-06-24 15:04:56.275,-74382.7387,37292.07513,9719.231393,34085.04684,26865.6569,-51425.97722,21014.14901,-65153.97163,-0.022,0.09,-0.986,192,0,0,0,0,0,0,0,0,0,0
 2023-06-24 15:04:56.275,-74451.78323,36006.35809,8444.466703,32795.68646,25595.38491,-50476.34101,19746.04514,-64550.36277,-0.022,0.09,-0.986,192,0,0,0,0,0,0,0,0,0,0
 2023-06-24 15:04:56.275,-74754.67172,36432.82937,8898.408282,33108.14149,26044.76673,-51141.50657,20192.65535,-65002.60562,-0.022,0.09,-0.986,192,0,0,0,0,0,0,0,0,0,0
 2023-06-24 15:04:56.275,-74874.09709,37894.99109,10370.58358,34500.09638,27514.05865,-52452.16816,21659.7568,-65861.22553,-0.022,0.09,-0.986,192,0,0,0,0,0,0,0,0,0,0
 2023-06-24 15:04:56.275,-74623.77991,38524.3268,10976.13704,35194.58743,28122.719,-52648.32707,22265.48907,-65972.09018,-0.02,0.094,-0.986,192,255,96,2,240,225,48,0,0,0,0
 2023-06-24 15:04:56.275,-74318.70095,37388.32174,9814.606287,34187.68605,26968.11729,-51421.1716,21094.45883,-65158.73255,-0.02,0.094,-0.986,192,0,0,0,0,0,0,0,0,0,0
 2023-06-24 15:04:56.275,-74391.96997,36047.55235,8486.532687,32854.02451,25642.61414,-50463.73462,19756.10343,-64553.60377,-0.02,0.094,-0.986,192,0,0,0,0,0,0,0,0,0,0
 2023-06-24 15:04:56.275,-74698.05475,36445.88279,8914.725055,33126.55933,26061.91052,-51122.86521,20184.40755,-65002.49386,-0.02,0.094,-0.986,192,0,0,0,0,0,0,0,0,0,0
 2023-06-24 15:04:56.275,-74816.4743,37942.75677,10421.92554,34540.39658,27565.37826,-52435.382,21691.94331,-65860.84555,-0.02,0.094,-0.986,192,0,0,0,0,0,0,0,0,0,0
 2023-06-24 15:04:56.276,-74582.49624,38504.65727,10959.0156,35168.54765,28105.66462,-52652.61861,22228.49694,-65989.70336,-0.02,0.094,-0.986,192,0,0,0,0,0,0,0,0,0,0
 2023-06-24 15:04:56.276,-74282.24525,37365.88059,9791.472231,34148.63755,26940.35643,-51439.05299,21074.00698,-65185.08526,-0.02,0.094,-0.986,192,0,0,0,0,0,0,0,0,0,0
 2023-06-24 15:04:56.276,-74345.99243,36041.18211,8475.69209,32825.01195,25627.45966,-50472.72002,19769.1792,-64571.03814,-0.02,0.094,-0.986,192,0,0,0,0,0,0,0,0,0,0
 2023-06-24 15:04:56.276,-74650.93728,36428.71665,8891.814517,33099.82665,26039.35761,-51120.58534,20176.71855,-65012.86507,-0.02,0.094,-0.986,192,0,0,0,0,0,0,0,0,0,0
 2023-06-24 15:04:56.276,-74775.68236,37890.47603,10364.74977,34476.58235,27507.599,-52433.75032,21648.268,-65870.72502,-0.02,0.094,-0.986,192,0,0,0,0,0,0,0,0,0,0
 2023-06-24 15:04:56.276,-74541.92782,38468.84977,10915.36265,35116.02105,28062.4587,-52661.64871,22208.44742,-66005.79661,-0.024,0.098,-0.988,192,255,64,3,16,225,32,0,0,0,0
 2023-06-24 15:04:56.276,-74243.59909,37320.23833,9732.26246,34113.90294,26895.02709,-51458.63312,21037.14896,-65210.34273,-0.024,0.098,-0.988,192,0,0,0,0,0,0,0,0,0,0
 2023-06-24 15:04:56.276,-74301.95949,36028.75454,8456.268425,32828.58823,25616.73082,-50481.77248,19760.86435,-64591.48998,-0.024,0.098,-0.988,192,0,0,0,0,0,0,0,0,0,0
 2023-06-24 15:04:56.276,-74602.92573,36449.63788,8903.929162,33130.58265,26060.88234,-51115.39973,20202.42306,-65025.82908,-0.024,0.098,-0.988,192,0,0,0,0,0,0,0,0,0,0
 2023-06-24 15:04:56.276,-74734.82337,37890.16311,10353.35038,34502.3092,27510.7953,-52430.06229,21644.95994,-65886.19243,-0.024,0.098,-0.988,192,0,0,0,0,0,0,0,0,0,0
 2023-06-24 15:04:56.276,-74497.69372,38505.88662,10952.37713,35174.9626,28105.59757,-52666.87902,22248.32293,-66025.80142,-0.024,0.098,-0.988,192,0,0,0,0,0,0,0,0,0,0
 2023-06-24 15:04:56.276,-74195.96752,37382.80086,9799.585915,34171.57044,26953.18633,-51468.55729,21091.37429,-65232.69447,-0.024,0.098,-0.988,192,0,0,0,0,0,0,0,0,0,0
 2023-06-24 15:04:56.276,-74256.54075,36035.16949,8458.704765,32836.27723,25622.13995,-50481.70542,19763.03247,-64607.40442,-0.024,0.098,-0.988,192,0,0,0,0,0,0,0,0,0,0
 2023-06-24 15:04:56.276,-74563.76547,36388.3941,8842.931252,33077.96664,26006.25467,-51108.69421,20141.58161,-65036.96025,-0.024,0.098,-0.988,192,0,0,0,0,0,0,0,0,0,0
 2023-06-24 15:04:56.276,-74693.40559,37874.42748,10345.68374,34477.02938,27495.01496,-52421.12159,21632.82295,-65895.66957,-0.024,0.098,-0.988,192,0,0,0,0,0,0,0,0,0,0
 2023-06-24 15:04:56.276,-74461.05921,38507.83122,10955.57343,35175.34258,28107.07278,-52669.67299,22245.88659,-66045.09098,-0.026,0.094,-0.988,192,255,48,2,240,225,32,0,0,0,0
 2023-06-24 15:04:56.276,-74164.27275,37380.56569,9799.429452,34183.32746,26963.24461,-51483.60002,21111.53556,-65261.10354,-0.026,0.094,-0.988,192,0,0,0,0,0,0,0,0,0,0
 2023-06-24 15:04:56.276,-74224.77892,36023.92656,8453.854436,32831.56101,25620.15064,-50492.74719,19772.68842,-64633.37715,-0.026,0.094,-0.988,192,0,0,0,0,0,0,0,0,0,0
 2023-06-24 15:04:56.276,-74528.40501,36384.03551,8846.887511,33072.26694,26006.27703,-51107.08488,20150.27644,-65055.80277,-0.026,0.094,-0.988,192,0,0,0,0,0,0,0,0,0,0
 2023-06-24 15:04:56.276,-74663.32014,37828.78522,10304.2883,34434.62812,27453.48542,-52421.97095,21592.96979,-65917.46252,-0.026,0.094,-0.988,192,0,0,0,0,0,0,0,0,0,0
 2023-06-24 15:04:56.276,-74421.09429,38520.41525,10968.35863,35196.97907,28129.33512,-52674.61272,22261.17519,-66069.27557,-0.026,0.094,-0.988,192,0,0,0,0,0,0,0,0,0,0
 2023-06-24 15:04:56.276,-74110.74032,37463.51301,9881.840334,34262.98908,27043.91206,-51485.36581,21171.43824,-65282.78473,-0.026,0.094,-0.988,192,0,0,0,0,0,0,0,0,0,0
 2023-06-24 15:04:56.276,-74172.45348,36066.95367,8496.747434,32868.12846,25655.06406,-50486.30988,19786.83708,-64651.90675,-0.026,0.094,-0.988,192,0,0,0,0,0,0,0,0,0,0
 2023-06-24 15:04:56.276,-74479.67821,36391.67981,8852.430743,33073.47394,26007.52872,-51091.50572,20136.2619,-65071.82897,-0.026,0.094,-0.988,192,0,0,0,0,0,0,0,0,0,0
 2023-06-24 15:04:56.276,-74629.88193,37769.84367,10244.0727,34373.02671,27392.3087,-52415.37719,21518.13615,-65940.41776,-0.026,0.094,-0.988,192,0,0,0,0,0,0,0,0,0,0
 2023-06-24 15:04:56.276,-74391.67939,38521.89046,10976.74054,35179.43295,28124.10481,-52678.12195,22259.69997,-66097.77404,-0.026,0.098,-0.988,192,255,48,3,16,225,32,0,0,0,0
 2023-06-24 15:04:56.276,-74082.57712,37488.07758,9911.188175,34267.77235,27059.46887,-51499.71563,21209.14563,-65318.72634,-0.026,0.098,-0.988,192,0,0,0,0,0,0,0,0,0,0
 2023-06-24 15:04:56.276,-74139.14938,36095.63096,8529.62685,32880.89131,25677.50522,-50491.56254,19817.8613,-64679.98054,-0.026,0.098,-0.988,192,0,0,0,0,0,0,0,0,0,0
 2023-06-24 15:04:56.277,-74442.06023,36427.10733,8896.128404,33100.22898,26042.73272,-51083.92848,20170.88475,-65087.81047,-0.026,0.098,-0.988,192,0,0,0,0,0,0,0,0,0,0
 2023-06-24 15:04:56.753,-74583.09973,37871.52176,10353.39509,34472.22376,27497.13838,-52396.40056,21619.56836,-65947.21269,-0.026,0.098,-0.988,192,0,0,0,0,0,0,0,0,0,0
 2023-06-24 15:04:56.753,-74353.3238,38564.5823,11018.44889,35239.84972,28175.8938,-52677.60786,22294.32282,-66119.11996,-0.026,0.098,-0.988,192,0,0,0,0,0,0,0,0,0,0
 2023-06-24 15:04:56.753,-74046.97079,37528.33307,9951.756591,34333.1512,27115.66116,-51509.61745,21235.56539,-65346.68837,-0.026,0.098,-0.988,192,0,0,0,0,0,0,0,0,0,0
 2023-06-24 15:04:56.753,-74109.35451,36070.6417,8500.346065,32887.50743,25665.94936,-50499.02803,19794.57078,-64708.70253,-0.026,0.098,-0.988,192,0,0,0,0,0,0,0,0,0,0
 2023-06-24 15:04:56.753,-74415.68517,36357.45929,8814.388074,33054.20674,25975.72219,-51084.2861,20105.30473,-65116.24189,-0.026,0.098,-0.988,192,0,0,0,0,0,0,0,0,0,0
 2023-06-24 15:04:56.753,-74553.08134,37837.5024,10311.77614,34441.71362,27462.26966,-52391.12555,21593.57328,-65971.21846,-0.026,0.098,-0.988,192,0,0,0,0,0,0,0,0,0,0
 2023-06-24 15:04:56.753,-74327.55224,38521.97987,10972.67252,35190.87704,28128.86573,-52685.2745,22255.65431,-66148.89248,-0.026,0.092,-0.992,192,255,48,2,224,225,0,0,0,0,0
 2023-06-24 15:04:56.753,-74026.83187,37438.50141,9860.472066,34230.86962,27024.44369,-51531.65627,21167.86196,-65385.60276,-0.026,0.092,-0.992,192,0,0,0,0,0,0,0,0,0,0
 2023-06-24 15:04:56.753,-74068.16024,36105.04104,8541.67444,32901.18669,25703.25443,-50497.30694,19844.57163,-64726.53922,-0.026,0.092,-0.992,192,0,0,0,0,0,0,0,0,0,0
 2023-06-24 15:04:56.753,-74369.26059,36404.28619,8869.753345,33090.88595,26026.86298,-51071.4115,20166.48146,-65124.89201,-0.026,0.092,-0.992,192,0,0,0,0,0,0,0,0,0,0
 2023-06-24 15:04:56.753,-74521.76655,37778.87377,10259.83068,34390.25991,27413.00641,-52389.44917,21555.12828,-65989.85982,-0.026,0.092,-0.992,192,0,0,0,0,0,0,0,0,0,0
 2023-06-24 15:04:56.754,-74297.39974,38475.19767,10932.57349,35148.54284,28091.73949,-52689.58839,22227.24524,-66173.4794,-0.026,0.092,-0.992,192,0,0,0,0,0,0,0,0,0,0
 2023-06-24 15:04:56.754,-73989.88443,37442.2118,9864.785953,34234.06592,27030.05398,-51539.76995,21170.2536,-65412.08958,-0.026,0.092,-0.992,192,0,0,0,0,0,0,0,0,0,0
 2023-06-24 15:04:56.754,-74031.70455,36087.56198,8519.657972,32896.04579,25686.15534,-50502.80547,19835.56388,-64750.96968,-0.026,0.092,-0.992,192,0,0,0,0,0,0,0,0,0,0
 2023-06-24 15:04:56.754,-74339.48807,36344.87526,8804.799176,33043.29908,25970.35777,-51077.2453,20121.55445,-65148.56251,-0.026,0.092,-0.992,192,0,0,0,0,0,0,0,0,0,0
 2023-06-24 15:04:56.754,-74486.38373,37759.98655,10231.82395,34367.48348,27391.36993,-52393.89716,21539.59382,-66009.77522,-0.026,0.092,-0.992,192,0,0,0,0,0,0,0,0,0,0
 2023-06-24 15:04:56.754,-74260.00527,38473.40953,10927.65611,35132.44958,28074.79686,-52702.64181,22202.74773,-66199.07215,-0.024,0.092,-0.99,192,255,64,2,224,225,16,0,0,0,0
 2023-06-24 15:04:56.754,-73952.26645,37441.18362,9868.250474,34225.68401,27021.04622,-51558.59012,21157.73662,-65443.87376,-0.024,0.092,-0.99,192,0,0,0,0,0,0,0,0,0,0
 2023-06-24 15:04:56.754,-73996.88053,36042.92554,8474.261579,32850.55999,25643.68703,-50517.42351,19781.51736,-64781.81509,-0.024,0.092,-0.99,192,0,0,0,0,0,0,0,0,0,0
 2023-06-24 15:04:56.754,-74298.96436,36348.98798,8814.164557,33040.86274,25973.59878,-51074.13841,20100.25324,-65168.65673,-0.024,0.092,-0.99,192,0,0,0,0,0,0,0,0,0,0
 2023-06-24 15:04:56.754,-74448.87751,37774.53754,10256.00854,34384.56021,27405.49623,-52386.58814,21515.29747,-66029.19889,-0.024,0.092,-0.99,192,0,0,0,0,0,0,0,0,0,0
 2023-06-24 15:04:56.754,-74232.17734,38445.60396,10901.37045,35106.65567,28056.37903,-52710.59903,22180.82067,-66230.99044,-0.024,0.092,-0.99,192,0,0,0,0,0,0,0,0,0,0
 2023-06-24 15:04:56.754,-73920.48227,37460.45082,9887.048291,34246.29232,27049.36588,-51574.03518,21173.51695,-65478.34015,-0.024,0.092,-0.99,192,0,0,0,0,0,0,0,0,0,0
 2023-06-24 15:04:56.754,-73954.52398,36104.75047,8546.502417,32903.24305,25705.42255,-50518.07171,19837.66494,-64801.99871,-0.024,0.092,-0.99,192,0,0,0,0,0,0,0,0,0,0
 2023-06-24 15:04:56.754,-74256.27253,36365.46121,8838.349144,33056.33015,25996.21874,-51068.2152,20136.9548,-65183.00655,-0.024,0.092,-0.99,192,0,0,0,0,0,0,0,0,0,0
 2023-06-24 15:04:56.754,-74417.22744,37725.29664,10210.52274,34336.43691,27362.31266,-52389.40446,21498.71248,-66049.87425,-0.024,0.092,-0.99,192,0,0,0,0,0,0,0,0,0,0
 2023-06-24 15:04:56.754,-74194.64877,38478.05869,10933.91459,35147.91699,28095.82986,-52717.30455,22225.30064,-66252.98455,-0.024,0.094,-0.992,192,255,64,2,240,225,0,0,0,0,0
 2023-06-24 15:04:56.754,-73883.84776,37492.45852,9910.830547,34291.24168,27082.87115,-51590.10608,21206.75399,-65508.85028,-0.024,0.094,-0.992,192,0,0,0,0,0,0,0,0,0,0
 2023-06-24 15:04:56.754,-73929.04299,36026.00527,8449.652308,32847.11782,25628.77841,-50535.99781,19752.86242,-64838.16383,-0.024,0.094,-0.992,192,0,0,0,0,0,0,0,0,0,0
 2023-06-24 15:04:56.754,-74244.4708,36208.3061,8663.491447,32911.42379,25834.39211,-51085.13547,19963.79584,-65221.5186,-0.024,0.094,-0.992,192,0,0,0,0,0,0,0,0,0,0
 2023-06-24 15:04:56.754,-74398.31786,37655.35804,10123.95443,34264.19607,27286.40613,-52399.10512,21413.77585,-66082.68661,-0.024,0.094,-0.992,192,0,0,0,0,0,0,0,0,0,0
 2023-06-24 15:04:56.754,-74176.00741,38415.69733,10860.66793,35070.42349,28021.62206,-52737.91286,22155.45144,-66291.49661,-0.024,0.094,-0.992,192,0,0,0,0,0,0,0,0,0,0
 2023-06-24 15:04:56.754,-73857.91974,37468.29629,9885.394262,34244.61594,27048.49417,-51616.25762,21188.69378,-65549.17282,-0.024,0.094,-0.992,192,0,0,0,0,0,0,0,0,0,0
 2023-06-24 15:04:56.754,-73891.29089,36047.28413,8473.233399,32852.5493,25641.78713,-50544.87145,19781.3609,-64864.33773,-0.024,0.094,-0.992,192,0,0,0,0,0,0,0,0,0,0
 2023-06-24 15:04:56.754,-74198.985,36255.7365,8711.368884,32955.1438,25877.62038,-51077.96056,20020.30105,-65234.88495,-0.024,0.094,-0.992,192,0,0,0,0,0,0,0,0,0,0
 2023-06-24 15:04:56.754,-74353.01088,37710.09746,10177.15158,34320.99185,27336.92108,-52390.4997,21475.62313,-66094.35422,-0.024,0.094,-0.992,192,0,0,0,0,0,0,0,0,0,0
 2023-06-24 15:04:56.754,-74134.2767,38466.25697,10914.06624,35128.8733,28073.36635,-52740.79624,22206.14519,-66310.89792,-0.026,0.094,-0.988,192,255,48,2,240,225,32,0,0,0,0
 2023-06-24 15:04:56.754,-73819.56414,37482.31083,9897.643017,34266.74417,27064.14039,-51633.8708,21202.21659,-65579.03476,-0.026,0.094,-0.988,192,0,0,0,0,0,0,0,0,0,0
 2023-06-24 15:04:56.754,-73838.42901,36127.43749,8551.933891,32927.67351,25719.99588,-50543.26213,19856.01572,-64879.58162,-0.026,0.094,-0.988,192,0,0,0,0,0,0,0,0,0,0
 2023-06-24 15:04:56.754,-74135.10372,36371.69735,8829.251984,33063.10273,25992.70952,-51053.99949,20128.19292,-65236.2484,-0.026,0.094,-0.988,192,0,0,0,0,0,0,0,0,0,0
 2023-06-24 15:04:56.755,-74294.58342,37769.41899,10241.4352,34363.32606,27393.0016,-52370.60665,21529.62494,-66099.53983,-0.026,0.094,-0.988,192,0,0,0,0,0,0,0,0,0,0
 2023-06-24 15:04:56.755,-74081.86186,38513.30739,10967.33045,35147.55936,28113.17481,-52735.63298,22251.51923,-66326.32063,-0.026,0.094,-0.988,192,0,0,0,0,0,0,0,0,0,0
 2023-06-24 15:04:56.755,-73767.26106,37557.09977,9977.617559,34332.19008,27135.97889,-51637.91646,21263.95211,-65599.75482,-0.026,0.094,-0.988,192,0,0,0,0,0,0,0,0,0,0
 2023-06-24 15:04:56.755,-73794.10551,36123.03419,8543.015545,32922.91259,25712.46334,-50549.2971,19854.3617,-64903.6768,-0.026,0.094,-0.988,192,0,0,0,0,0,0,0,0,0,0
 2023-06-24 15:04:56.755,-74096.81518,36322.74703,8775.853667,33005.50228,25940.89817,-51053.57481,20074.59343,-65260.83532,-0.026,0.094,-0.988,192,0,0,0,0,0,0,0,0,0,0
 2023-06-24 15:04:56.755,-74265.10146,37696.57465,10165.77454,34284.64792,27319.82199,-52370.0255,21448.42105,-66129.29,-0.026,0.094,-0.988,192,0,0,0,0,0,0,0,0,0,0
 2023-06-24 15:04:56.755,-74065.16511,38381.36505,10830.56013,35016.55579,27983.26647,-52753.11205,22115.17359,-66371.80643,-0.026,0.094,-0.988,192,0,0,0,0,0,0,0,0,0,0
 2023-06-24 15:04:56.755,-73746.13866,37464.22827,9880.722747,34221.34778,27035.57486,-51661.65401,21166.4538,-65650.24741,-0.022,0.096,-0.99,192,255,80,3,0,225,16,0,0,0,0
 2023-06-24 15:04:56.755,-73765.47292,36051.3298,8474.418041,32837.2607,25635.21572,-50560.56238,19771.88376,-64945.49691,-0.022,0.096,-0.99,192,0,0,0,0,0,0,0,0,0,0
 2023-06-24 15:04:56.755,-74062.14762,36270.13102,8729.272631,32944.07969,25882.18014,-51050.42321,20020.74808,-65289.64672,-0.022,0.096,-0.99,192,0,0,0,0,0,0,0,0,0,0
 2023-06-24 15:04:56.755,-74229.0481,37653.07816,10128.31302,34249.89095,27275.1185,-52368.32677,21395.53683,-66156.00033,-0.022,0.096,-0.99,192,0,0,0,0,0,0,0,0,0,0
 2023-06-24 15:04:56.755,-74016.70653,38468.15687,10925.0633,35106.74508,28062.10107,-52749.20049,22173.17637,-66394.87343,-0.022,0.096,-0.99,192,0,0,0,0,0,0,0,0,0,0
 2023-06-24 15:04:56.755,-73697.65773,37561.23484,9988.055824,34315.69449,27129.27337,-51666.43729,21260.39818,-65681.87513,-0.022,0.096,-0.99,192,0,0,0,0,0,0,0,0,0,0
 2023-06-24 15:04:56.755,-73723.87632,36082.62224,8513.287725,32860.90885,25663.17775,-50564.7198,19807.89242,-64976.85641,-0.022,0.096,-0.99,192,0,0,0,0,0,0,0,0,0,0
 2023-06-24 15:04:56.755,-74025.82604,36261.88323,8718.834367,32931.22744,25865.90807,-51046.93634,20005.81712,-65316.91585,-0.022,0.096,-0.99,192,0,0,0,0,0,0,0,0,0,0
 2023-06-24 15:04:56.755,-74202.67304,37599.67984,10066.10812,34181.15934,27210.07493,-52367.07507,21346.05007,-66187.06926,-0.022,0.096,-0.99,192,0,0,0,0,0,0,0,0,0,0
 2023-06-24 15:04:56.755,-73993.48307,38429.39895,10874.34719,35047.73647,28021.01857,-52760.48812,22162.20166,-66432.78199,-0.022,0.096,-0.99,192,0,0,0,0,0,0,0,0,0,0
 2023-06-24 15:04:56.755,-73677.29529,37528.60129,9936.065666,34283.91031,27098.40561,-51688.85609,21232.12322,-65725.55044,-0.024,0.098,-0.988,192,255,64,3,16,225,32,0,0,0,0
 2023-06-24 15:04:56.755,-73705.81611,36025.82646,8437.649421,32816.18301,25606.00199,-50580.96952,19738.80318,-65017.13425,-0.024,0.098,-0.988,192,0,0,0,0,0,0,0,0,0,0
 2023-06-24 15:04:56.755,-74008.90577,36202.53935,8650.169808,32883.21589,25808.06176,-51050.46791,19936.92904,-65350.10819,-0.024,0.098,-0.988,192,0,0,0,0,0,0,0,0,0,0
 2023-06-24 15:04:56.755,-74181.0142,37592.34847,10052.54061,34189.13891,27208.13032,-52365.82337,21334.40481,-66214.85248,-0.024,0.098,-0.988,192,0,0,0,0,0,0,0,0,0,0
 2023-06-24 15:04:56.755,-73973.59001,38436.19388,10881.4327,35068.68006,28036.39657,-52769.04884,22165.12974,-66467.42719,-0.024,0.098,-0.988,192,0,0,0,0,0,0,0,0,0,0
 2023-06-24 15:04:56.755,-73666.16412,37492.41382,9908.640076,34260.77625,27072.29877,-51714.89587,21182.83763,-65773.53964,-0.024,0.098,-0.988,192,0,0,0,0,0,0,0,0,0,0
 2023-06-24 15:04:56.755,-73684.00081,36043.84196,8463.398631,32835.89725,25628.13021,-50590.2455,19747.94504,-65050.93009,-0.024,0.098,-0.988,192,0,0,0,0,0,0,0,0,0,0
 2023-06-24 15:04:56.755,-73984.67648,36201.62293,8656.22713,32871.54828,25801.11036,-51048.90329,19924.36736,-65375.2539,-0.024,0.098,-0.988,192,0,0,0,0,0,0,0,0,0,0
 2023-06-24 15:04:56.755,-74156.0473,37608.19585,10079.16153,34196.22441,27220.46849,-52360.48131,21342.76436,-66237.20422,-0.024,0.098,-0.988,192,0,0,0,0,0,0,0,0,0,0
 2023-06-24 15:04:56.755,-73950.00892,38467.17339,10917.91074,35097.06677,28066.03498,-52773.13921,22186.74388,-66493.75755,-0.024,0.098,-0.988,192,0,0,0,0,0,0,0,0,0,0
 2023-06-24 15:04:56.755,-73639.61025,37546.6615,9963.312443,34301.97052,27118.61159,-51727.32344,21240.23691,-65804.40739,-0.022,0.098,-0.992,192,255,80,3,16,225,0,0,0,0,0
 2023-06-24 15:04:56.755,-73649.60148,36129.29268,8549.922234,32914.106,25709.60232,-50590.9831,19833.95455,-65075.06997,-0.022,0.098,-0.992,192,0,0,0,0,0,0,0,0,0,0
 2023-06-24 15:04:56.755,-73943.48221,36318.47785,8765.549513,32996.0475,25922.27917,-51030.19488,20055.59445,-65387.14503,-0.022,0.098,-0.992,192,0,0,0,0,0,0,0,0,0,0
 2023-06-24 15:04:56.755,-74127.63824,37627.21719,10092.12555,34219.02319,27240.4733,-52349.17132,21374.63795,-66255.93498,-0.022,0.098,-0.992,192,0,0,0,0,0,0,0,0,0,0
 2023-06-24 15:04:56.755,-73940.77765,38393.05501,10840.41725,35026.85994,27987.60271,-52787.64549,22118.14637,-66532.2696,-0.022,0.098,-0.992,192,0,0,0,0,0,0,0,0,0,0
 2023-06-24 15:04:56.755,-73618.5549,37576.7246,9995.878934,34325.43985,27142.37149,-51739.12516,21270.36706,-65838.60556,-0.022,0.098,-0.992,192,0,0,0,0,0,0,0,0,0,0
 2023-06-24 15:04:56.755,-73623.6064,36147.37524,8568.340071,32925.37128,25719.21357,-50592.77124,19847.54441,-65100.72978,-0.022,0.098,-0.992,192,0,0,0,0,0,0,0,0,0,0
 2023-06-24 15:04:56.755,-73916.9954,36313.53811,8764.834257,32984.78222,25911.32682,-51022.90821,20041.66931,-65406.85927,-0.022,0.098,-0.992,192,0,0,0,0,0,0,0,0,0,0
 2023-06-24 15:04:56.755,-74094.91528,37692.12665,10157.72792,34270.87924,27298.65489,-52334.32976,21441.84964,-66269.6366,-0.022,0.098,-0.992,192,0,0,0,0,0,0,0,0,0,0
 2023-06-24 15:04:56.755,-73893.90604,38567.30921,11007.87652,35178.65064,28151.4857,-52770.27819,22317.14395,-66542.05966,-0.022,0.098,-0.992,192,0,0,0,0,0,0,0,0,0,0
 2023-06-24 15:04:56.756,-73585.18375,37635.59909,10040.78359,34375.32894,27197.06621,-51745.38365,21347.70409,-65866.54524,-0.024,0.096,-0.988,192,255,64,3,0,225,32,0,0,0,0
 2023-06-24 15:04:56.756,-73601.1876,36090.31124,8495.316922,32893.00595,25669.77151,-50604.55061,19797.92354,-65135.6432,-0.024,0.096,-0.988,192,0,0,0,0,0,0,0,0,0,0
 2023-06-24 15:04:56.756,-73911.78744,36140.28974,8580.566475,32845.57555,25745.16395,-51034.35231,19867.48217,-65444.63372,-0.024,0.096,-0.988,192,0,0,0,0,0,0,0,0,0,0
 2023-06-24 15:04:56.756,-74092.79187,37536.80438,9996.124804,34138.31104,27150.30636,-52343.20341,21282.50406,-66308.28277,-0.024,0.096,-0.988,192,0,0,0,0,0,0,0,0,0,0
 2023-06-24 15:04:56.756,-73892.54259,38445.02281,10884.42783,35084.48274,28040.21872,-52789.72421,22179.72543,-66589.26655,-0.024,0.096,-0.988,192,0,0,0,0,0,0,0,0,0,0
 2023-06-24 15:04:56.756,-73582.25567,37543.84518,9950.817818,34307.69256,27111.68255,-51771.84811,21246.20482,-65918.51305,-0.024,0.096,-0.988,192,0,0,0,0,0,0,0,0,0,0
 2023-06-24 15:04:56.756,-73592.60453,36045.27247,8460.291739,32832.63389,25619.81536,-50616.5982,19759.5456,-65177.55272,-0.024,0.096,-0.988,192,0,0,0,0,0,0,0,0,0,0
 2023-06-24 15:04:56.756,-73884.83124,36215.54806,8660.83159,32892.76009,25816.48836,-51020.1366,19956.24095,-65467.49955,-0.024,0.096,-0.988,192,0,0,0,0,0,0,0,0,0,0
 2023-06-24 15:04:56.756,-74068.47317,37574.8247,10034.45805,34164.61905,27189.69014,-52330.41821,21340.64094,-66332.57912,-0.024,0.096,-0.988,192,0,0,0,0,0,0,0,0,0,0
 2023-06-24 15:04:56.756,-73887.84872,38378.12404,10821.06064,35010.9902,27973.76698,-52802.91173,22117.63228,-66632.58423,-0.024,0.096,-0.988,192,0,0,0,0,0,0,0,0,0,0
 2023-06-24 15:04:56.756,-73564.26252,37593.04137,10010.22875,34346.76341,27158.57651,-51783.69454,21299.82666,-65959.21558,-0.018,0.09,-0.992,192,255,112,2,208,225,0,0,0,0,0
 2023-06-24 15:04:56.756,-73561.69207,36133.56187,8555.934853,32924.03018,25707.21068,-50616.5535,19852.79707,-65209.64983,-0.018,0.09,-0.992,192,0,0,0,0,0,0,0,0,0,0
 2023-06-24 15:04:56.756,-73856.71274,36233.13889,8684.300921,32929.01461,25839.60007,-51015.77801,19970.41195,-65499.30608,-0.018,0.09,-0.992,192,0,0,0,0,0,0,0,0,0,0
 2023-06-24 15:04:56.756,-74043.41686,37588.59337,10052.36179,34185.22736,27207.63859,-52327.31132,21344.5525,-66363.37982,-0.018,0.09,-0.992,192,0,0,0,0,0,0,0,0,0,0
 2023-06-24 15:04:56.756,-73860.64665,38438.58551,10881.23153,35068.16597,28033.87082,-52808.14204,22173.60105,-66667.00592,-0.018,0.09,-0.992,192,0,0,0,0,0,0,0,0,0,0
 2023-06-24 15:04:56.756,-73546.62699,37582.13372,9993.979036,34342.47188,27153.27914,-51806.49332,21296.60801,-66006.28835,-0.018,0.09,-0.992,192,0,0,0,0,0,0,0,0,0,0
 2023-06-24 15:04:56.756,-73536.76987,36141.67555,8555.241949,32936.72597,25721.73932,-50624.22015,19870.99139,-65245.03264,-0.018,0.09,-0.992,192,0,0,0,0,0,0,0,0,0,0
 2023-06-24 15:04:56.756,-73830.87412,36231.03782,8678.355357,32919.78334,25840.91882,-51008.11136,19996.71996,-65522.5519,-0.018,0.09,-0.992,192,0,0,0,0,0,0,0,0,0,0
 2023-06-24 15:04:56.756,-74017.89117,37571.42723,10035.10625,34189.36243,27200.24016,-52316.60483,21346.09477,-66383.94342,-0.018,0.09,-0.992,192,0,0,0,0,0,0,0,0,0,0
 2023-06-24 15:04:56.756,-73835.63505,38429.75657,10877.43174,35085.17564,28042.16332,-52808.03028,22189.71666,-66693.49273,-0.018,0.09,-0.992,192,0,0,0,0,0,0,0,0,0,0
 2023-06-24 15:04:56.756,-73515.91569,37625.65257,10035.35212,34394.05971,27210.03022,-51811.99185,21361.15984,-66036.23969,-0.024,0.096,-0.994,192,255,64,3,0,224,240,0,0,0,0
 2023-06-24 15:04:56.756,-73512.45117,36099.05077,8515.746417,32899.80088,25689.66457,-50630.70215,19840.99535,-65277.50972,-0.024,0.096,-0.994,192,0,0,0,0,0,0,0,0,0,0
 2023-06-24 15:04:56.756,-73807.74007,36184.47914,8634.657697,32880.95836,25796.30474,-51004.62449,19933.46452,-65550.64804,-0.024,0.096,-0.994,192,0,0,0,0,0,0,0,0,0,0
 2023-06-24 15:04:56.756,-73991.56082,37576.38932,10041.27533,34189.87652,27203.83879,-52305.18309,21336.08119,-66406.71985,-0.024,0.096,-0.994,192,0,0,0,0,0,0,0,0,0,0
 2023-06-24 15:04:56.756,-73813.97621,38423.40868,10867.90989,35076.39141,28041.73863,-52808.79024,22184.30754,-66725.85806,-0.024,0.096,-0.994,192,0,0,0,0,0,0,0,0,0,0
 2023-06-24 15:04:56.756,-73490.27824,37650.12773,10064.92347,34427.47556,27247.69291,-51819.94907,21378.28128,-66072.69538,-0.024,0.096,-0.994,192,0,0,0,0,0,0,0,0,0,0
 2023-06-24 15:04:56.756,-73472.28509,36178.77944,8591.630589,32991.89007,25773.95299,-50620.46505,19909.12347,-65300.17439,-0.024,0.096,-0.994,192,0,0,0,0,0,0,0,0,0,0
 2023-06-24 15:04:56.756,-73769.58564,36207.14381,8650.32627,32911.26733,25826.23372,-50984.53027,19967.10389,-65568.32827,-0.024,0.096,-0.994,192,0,0,0,0,0,0,0,0,0,0
 2023-06-24 15:04:56.756,-73958.43553,37573.72946,10035.57563,34175.72787,27200.93306,-52286.07235,21337.5117,-66427.8199,-0.024,0.096,-0.994,192,0,0,0,0,0,0,0,0,0,0
 2023-06-24 15:04:56.756,-73785.6789,38436.01506,10880.00219,35075.67615,28042.14097,-52802.19648,22176.14915,-66756.05527,-0.024,0.096,-0.994,192,0,0,0,0,0,0,0,0,0,0
 2023-06-24 15:04:56.756,-73468.86527,37653.45814,10061.3919,34424.34632,27240.13802,-51826.7887,21378.63891,-66111.94505,-0.026,0.09,-0.99,192,255,48,2,208,225,16,0,0,0,0
 2023-06-24 15:04:56.756,-73442.73608,36229.13792,8636.401133,33040.3263,25823.64092,-50616.10646,19966.16512,-65329.8128,-0.026,0.09,-0.99,192,0,0,0,0,0,0,0,0,0,0
 2023-06-24 15:04:56.756,-73748.10562,36185.26145,8627.572194,32884.6464,25801.93738,-50978.22708,19952.53056,-65595.50799,-0.026,0.09,-0.99,192,0,0,0,0,0,0,0,0,0,0
 2023-06-24 15:04:56.757,-73948.89134,37498.02411,9959.55735,34111.04192,27131.10621,-52283.81482,21262.45454,-66455.58077,-0.026,0.09,-0.99,192,0,0,0,0,0,0,0,0,0,0
 2023-06-24 15:04:56.757,-73770.83734,38439.18901,10882.46088,35087.8355,28051.46164,-52803.85051,22171.56704,-66781.69272,-0.026,0.09,-0.99,192,0,0,0,0,0,0,0,0,0,0
 2023-06-24 15:04:56.757,-73449.10633,37692.95367,10107.54825,34452.46481,27272.68216,-51836.01997,21409.10434,-66141.60581,-0.026,0.09,-0.99,192,0,0,0,0,0,0,0,0,0,0
 2023-06-24 15:04:56.757,-73428.67684,36205.98152,8625.135854,33001.07664,25792.25907,-50624.66718,19945.75798,-65360.74762,-0.026,0.09,-0.99,192,0,0,0,0,0,0,0,0,0,0
 2023-06-24 15:04:56.757,-73727.43025,36193.82217,8637.205796,32900.71731,25812.86738,-50970.18045,19961.02422,-65615.26693,-0.026,0.09,-0.99,192,0,0,0,0,0,0,0,0,0,0
 2023-06-24 15:04:56.757,-73936.53082,37460.20495,9918.027808,34071.21111,27087.81088,-52283.21132,21230.24568,-66482.04523,-0.026,0.09,-0.99,192,0,0,0,0,0,0,0,0,0,0
 2023-06-24 15:04:56.757,-73762.03075,38417.53017,10861.36083,35056.45365,28025.66773,-52816.05456,22156.45726,-66816.87436,-0.026,0.09,-0.99,192,0,0,0,0,0,0,0,0,0,0
 2023-06-24 15:04:56.757,-73429.81677,37757.59491,10168.54616,34512.5016,27337.16695,-51849.25221,21467.64356,-66174.37347,-0.028,0.092,-0.992,192,255,32,2,224,225,0,0,0,0,0
 2023-06-24 15:04:56.757,-73413.12002,36217.69383,8632.176653,33009.32443,25794.89658,-50635.15015,19934.24683,-65392.97883,-0.028,0.092,-0.992,192,0,0,0,0,0,0,0,0,0,0
 2023-06-24 15:04:56.757,-73707.31368,36230.97077,8676.746032,32915.02242,25833.76626,-50963.29611,19974.72584,-65635.22704,-0.028,0.092,-0.992,192,0,0,0,0,0,0,0,0,0,0
 2023-06-24 15:04:56.757,-73907.63002,37557.70326,10023.55039,34141.39559,27168.47833,-52259.98786,21315.1376,-66489.89069,-0.028,0.092,-0.992,192,0,0,0,0,0,0,0,0,0,0
 2023-06-24 15:04:57.233,-73738.71788,38493.14612,10944.1964,35114.88111,28092.87943,-52802.55411,22227.87109,-66833.16878,-0.028,0.092,-0.992,192,0,0,0,0,0,0,0,0,0,0
 2023-06-24 15:04:57.233,-73420.33963,37751.33643,10167.96501,34510.66876,27332.24956,-51856.8518,21461.60858,-66209.3763,-0.028,0.092,-0.992,192,0,0,0,0,0,0,0,0,0,0
 2023-06-24 15:04:57.233,-73401.43006,36207.18851,8624.778226,33009.88323,25800.261,-50635.66424,19936.41495,-65423.42191,-0.028,0.092,-0.992,192,0,0,0,0,0,0,0,0,0,0
 2023-06-24 15:04:57.233,-73702.79863,36170.30813,8620.710209,32867.81554,25786.84995,-50959.74218,19912.34212,-65664.93251,-0.028,0.092,-0.992,192,0,0,0,0,0,0,0,0,0,0
 2023-06-24 15:04:57.233,-73904.18785,37517.7607,9989.084004,34106.79509,27140.80687,-52255.49516,21259.23589,-66520.06555,-0.028,0.092,-0.992,192,0,0,0,0,0,0,0,0,0,0
 2023-06-24 15:04:57.233,-73732.68291,38486.17238,10937.53558,35089.46718,28084.49752,-52807.33738,22214.92943,-66869.75859,-0.028,0.092,-0.992,192,0,0,0,0,0,0,0,0,0,0
 2023-06-24 15:04:57.233,-73409.90137,37776.28097,10192.84251,34511.98751,27351.51677,-51867.11125,21493.1916,-66246.07786,-0.022,0.092,-0.986,192,255,80,2,224,225,48,0,0,0,0
 2023-06-24 15:04:57.233,-73387.16965,36221.38187,8632.713095,33021.86376,25805.69247,-50636.93829,19937.53254,-65452.12155,-0.022,0.092,-0.986,192,0,0,0,0,0,0,0,0,0,0
 2023-06-24 15:04:57.233,-73679.82104,36218.99023,8658.663471,32918.33048,25826.99368,-50941.32435,19950.78712,-65677.673,-0.022,0.092,-0.986,192,0,0,0,0,0,0,0,0,0,0
 2023-06-24 15:04:57.233,-73883.55719,37578.0657,10031.79819,34181.60637,27199.59196,-52238.41843,21330.24738,-66528.71567,-0.022,0.092,-0.986,192,0,0,0,0,0,0,0,0,0,0
 2023-06-24 15:04:57.233,-73719.65184,38533.71454,10967.3081,35168.36884,28136.01829,-52806.53272,22270.69703,-66887.90821,-0.022,0.092,-0.986,192,0,0,0,0,0,0,0,0,0,0
 2023-06-24 15:04:57.233,-73394.52337,37832.24974,10239.5353,34583.08841,27406.61382,-51877.48246,21539.19149,-66272.56468,-0.022,0.092,-0.986,192,0,0,0,0,0,0,0,0,0,0
 2023-06-24 15:04:57.233,-73353.50792,36341.45544,8754.664213,33132.5496,25920.044,-50629.58457,20066.03272,-65465.10791,-0.022,0.092,-0.986,192,0,0,0,0,0,0,0,0,0,0
 2023-06-24 15:04:57.233,-73646.36047,36292.70629,8733.09478,32986.90563,25899.16747,-50924.82876,20050.27474,-65687.03838,-0.022,0.092,-0.986,192,0,0,0,0,0,0,0,0,0,0
 2023-06-24 15:04:57.233,-73858.47853,37573.90828,10031.86524,34168.19533,27190.11482,-52222.54869,21335.20947,-66541.54557,-0.022,0.092,-0.986,192,0,0,0,0,0,0,0,0,0,0
 2023-06-24 15:04:57.233,-73694.88611,38557.5862,11002.44504,35177.24248,28154.682,-52797.88259,22299.39667,-66905.96842,-0.022,0.092,-0.986,192,0,0,0,0,0,0,0,0,0,0
 2023-06-24 15:04:57.233,-73372.5516,37869.01836,10283.00944,34616.10193,27439.02385,-51880.76817,21573.07673,-66297.95626,-0.02,0.09,-0.984,192,255,96,2,208,225,64,0,0,0,0
 2023-06-24 15:04:57.233,-73337.72759,36302.96574,8717.046227,33100.05016,25874.22292,-50629.62927,20003.91722,-65489.76189,-0.02,0.09,-0.984,192,0,0,0,0,0,0,0,0,0,0
 2023-06-24 15:04:57.233,-73627.96499,36254.30599,8701.936448,32940.01167,25851.89353,-50908.60139,19984.96294,-65702.19287,-0.02,0.09,-0.984,192,0,0,0,0,0,0,0,0,0,0
 2023-06-24 15:04:57.233,-73842.02765,37566.28633,10030.97117,34140.52387,27174.22273,-52203.48265,21315.60699,-66554.80016,-0.02,0.09,-0.984,192,0,0,0,0,0,0,0,0,0,0
 2023-06-24 15:04:57.233,-73687.95707,38537.6708,10986.17297,35134.75181,28126.80937,-52802.42,22266.27138,-66934.42219,-0.02,0.09,-0.984,192,0,0,0,0,0,0,0,0,0,0
 2023-06-24 15:04:57.233,-73371.23285,37848.23124,10262.22232,34573.94654,27417.14149,-51906.49502,21540.04086,-66339.77638,-0.02,0.09,-0.984,192,0,0,0,0,0,0,0,0,0,0
 2023-06-24 15:04:57.233,-73335.13478,36265.34775,8675.494334,33053.8044,25842.88577,-50646.90717,19956.44211,-65525.54703,-0.02,0.09,-0.984,192,0,0,0,0,0,0,0,0,0,0
 2023-06-24 15:04:57.233,-73622.26529,36207.94847,8649.543959,32901.94665,25812.42035,-50903.97458,19925.06026,-65721.50477,-0.02,0.09,-0.984,192,0,0,0,0,0,0,0,0,0,0
 2023-06-24 15:04:57.233,-73825.91204,37590.18035,10051.89241,34172.15159,27203.9282,-52186.42827,21315.20466,-66562.06448,-0.02,0.09,-0.984,192,0,0,0,0,0,0,0,0,0,0
 2023-06-24 15:04:57.233,-73673.02611,38572.13719,11021.60049,35176.12489,28169.3671,-52797.12263,22280.86707,-66948.14616,-0.02,0.09,-0.984,192,0,0,0,0,0,0,0,0,0,0
 2023-06-24 15:04:57.233,-73353.01618,37915.21942,10338.48647,34629.49063,27484.30848,-51910.83126,21600.16705,-66360.20587,-0.026,0.096,-0.984,192,255,48,3,0,225,64,0,0,0,0
 2023-06-24 15:04:57.233,-73314.52648,36319.7519,8739.487379,33095.62452,25894.74182,-50647.19774,20012.54499,-65542.98139,-0.026,0.096,-0.984,192,0,0,0,0,0,0,0,0,0,0
 2023-06-24 15:04:57.233,-73597.85719,36268.11937,8716.085102,32957.80366,25875.02758,-50887.76957,19989.85797,-65727.83032,-0.026,0.096,-0.984,192,0,0,0,0,0,0,0,0,0,0
 2023-06-24 15:04:57.234,-73816.12197,37569.50498,10035.57563,34161.15453,27189.2431,-52177.66639,21306.7557,-66574.20147,-0.026,0.096,-0.984,192,0,0,0,0,0,0,0,0,0,0
 2023-06-24 15:04:57.234,-73661.87259,38593.28194,11042.63348,35202.61171,28191.45062,-52798.26257,22317.97097,-66964.6641,-0.026,0.096,-0.984,192,0,0,0,0,0,0,0,0,0,0
 2023-06-24 15:04:57.234,-73337.10174,37972.39518,10393.42706,34693.64014,27540.61252,-51918.27439,21667.02112,-66379.29426,-0.026,0.096,-0.984,192,0,0,0,0,0,0,0,0,0,0
 2023-06-24 15:04:57.234,-73288.64316,36406.02963,8826.301554,33178.21421,25977.1527,-50640.8722,20105.03651,-65552.99497,-0.026,0.096,-0.984,192,0,0,0,0,0,0,0,0,0,0
 2023-06-24 15:04:57.234,-73570.92334,36315.08038,8764.610739,32994.95226,25911.41622,-50871.87748,20035.07555,-65733.90999,-0.026,0.096,-0.984,192,0,0,0,0,0,0,0,0,0,0
 2023-06-24 15:04:57.234,-73783.57783,37630.03351,10100.35099,34213.54702,27241.65794,-52155.53816,21361.98686,-66578.56006,-0.026,0.096,-0.984,192,0,0,0,0,0,0,0,0,0,0
 2023-06-24 15:04:57.234,-73625.05926,38670.35075,11121.02105,35286.58721,28269.10058,-52779.88944,22392.51404,-66973.09071,-0.026,0.096,-0.984,192,0,0,0,0,0,0,0,0,0,0
 2023-06-24 15:04:57.234,-73300.35547,38024.43004,10440.29867,34764.3387,27598.19062,-51907.70202,21721.80524,-66393.53232,-0.024,0.096,-0.99,192,255,64,3,0,225,16,0,0,0,0
 2023-06-24 15:04:57.234,-73255.47317,36428.35902,8840.293746,33219.05085,26005.11473,-50630.05395,20131.92566,-65568.06005,-0.024,0.096,-0.99,192,0,0,0,0,0,0,0,0,0,0
 2023-06-24 15:04:57.234,-73539.65325,36324.8928,8765.527161,33007.91627,25923.82144,-50854.53252,20058.63429,-65744.37061,-0.024,0.096,-0.99,192,0,0,0,0,0,0,0,0,0,0
 2023-06-24 15:04:57.234,-73762.03075,37598.02581,10058.12854,34187.50723,27216.13225,-52142.19417,21341.80323,-66590.18297,-0.024,0.096,-0.99,192,0,0,0,0,0,0,0,0,0,0
 2023-06-24 15:04:57.234,-73612.96697,38617.57828,11059.15142,35245.92939,28226.4758,-52779.4424,22346.22357,-66994.14605,-0.024,0.096,-0.99,192,0,0,0,0,0,0,0,0,0,0
 2023-06-24 15:04:57.234,-73289.8725,37993.67404,10409.47561,34740.77997,27571.61439,-51915.92746,21699.4982,-66422.05315,-0.024,0.096,-0.99,192,0,0,0,0,0,0,0,0,0,0
 2023-06-24 15:04:57.234,-73244.45376,36385.93541,8801.289952,33181.52227,25964.52397,-50636.75948,20095.42526,-65595.73151,-0.024,0.096,-0.99,192,0,0,0,0,0,0,0,0,0,0
 2023-06-24 15:04:57.234,-73525.41519,36295.14263,8739.845006,32988.06792,25900.39681,-50846.55295,20031.70044,-65763.14607,-0.024,0.096,-0.99,192,0,0,0,0,0,0,0,0,0,0
 2023-06-24 15:04:57.234,-73752.39715,37559.46905,10026.41142,34157.73471,27183.09637,-52128.89488,21304.38641,-66607.50557,-0.024,0.096,-0.99,192,0,0,0,0,0,0,0,0,0,0
 2023-06-24 15:04:57.234,-73605.83676,38606.13419,11056.60332,35237.36867,28214.18234,-52772.89334,22328.5657,-67014.77671,-0.024,0.096,-0.99,192,0,0,0,0,0,0,0,0,0,0
 2023-06-24 15:04:57.234,-73283.79283,37987.88494,10408.67095,34726.4972,27562.7631,-51920.21899,21681.79562,-66448.65172,-0.022,0.096,-0.99,192,255,80,3,0,225,16,0,0,0,0
 2023-06-24 15:04:57.234,-73227.7123,36420.69237,8835.845749,33217.59799,25995.57054,-50629.13753,20131.23275,-65612.62943,-0.022,0.096,-0.99,192,0,0,0,0,0,0,0,0,0,0
 2023-06-24 15:04:57.234,-73518.70966,36238.65977,8686.267875,32942.04568,25844.87508,-50836.44996,19979.64322,-65779.08287,-0.022,0.096,-0.99,192,0,0,0,0,0,0,0,0,0,0
 2023-06-24 15:04:57.234,-73750.5196,37504.72963,9977.483449,34098.97197,27131.46384,-52120.93766,21263.28156,-66623.59883,-0.022,0.096,-0.99,192,0,0,0,0,0,0,0,0,0,0
 2023-06-24 15:04:57.234,-73597.52191,38641.94168,11103.1173,35255.85356,28254.0355,-52771.7087,22381.65109,-67034.71446,-0.022,0.096,-0.99,192,0,0,0,0,0,0,0,0,0,0
 2023-06-24 15:04:57.234,-73279.12131,38008.5603,10434.8672,34756.40383,27594.30141,-51931.05959,21721.55937,-66479.56419,-0.022,0.096,-0.99,192,0,0,0,0,0,0,0,0,0,0
 2023-06-24 15:04:57.234,-73227.19821,36390.62928,8811.974086,33202.80113,25979.23141,-50639.91107,20109.77508,-65645.28533,-0.022,0.096,-0.99,192,0,0,0,0,0,0,0,0,0,0
 2023-06-24 15:04:57.234,-73508.53962,36269.14755,8721.516576,32969.51598,25882.11309,-50826.61519,20019.56344,-65797.32189,-0.022,0.096,-0.99,192,0,0,0,0,0,0,0,0,0,0
 2023-06-24 15:04:57.234,-73738.00263,37532.62461,10006.56307,34121.48018,27158.37534,-52103.97269,21298.66437,-66636.7193,-0.022,0.096,-0.99,192,0,0,0,0,0,0,0,0,0,0
 2023-06-24 15:04:57.234,-73601.45582,38553.27231,11006.31189,35188.06072,28166.46137,-52778.88361,22293.13818,-67066.5657,-0.022,0.096,-0.99,192,0,0,0,0,0,0,0,0,0,0
 2023-06-24 15:04:57.234,-73278.56252,37969.98119,10389.26964,34729.98407,27554.29179,-51948.00221,21686.713,-66514.96935,-0.016,0.088,-0.99,192,255,128,2,192,225,16,0,0,0,0
 2023-06-24 15:04:57.234,-73212.3343,36425.76622,8840.293746,33243.16838,26012.15553,-50643.465,20146.36489,-65666.60889,-0.016,0.088,-0.99,192,0,0,0,0,0,0,0,0,0,0
 2023-06-24 15:04:57.234,-73493.07221,36264.56544,8713.4923,32967.929,25871.42895,-50817.16041,20010.24276,-65809.41419,-0.016,0.088,-0.99,192,0,0,0,0,0,0,0,0,0,0
 2023-06-24 15:04:57.234,-73732.28058,37478.13105,9947.800332,34075.14502,27097.86917,-52100.12819,21242.44973,-66653.84074,-0.016,0.088,-0.99,192,0,0,0,0,0,0,0,0,0,0
 2023-06-24 15:04:57.234,-73594.54913,38566.10221,11012.16805,35200.30948,28181.5488,-52787.42198,22304.69403,-67090.45972,-0.016,0.088,-0.99,192,0,0,0,0,0,0,0,0,0,0
 2023-06-24 15:04:57.234,-73265.21853,38030.62147,10446.62421,34785.68462,27619.693,-51968.02938,21746.66038,-66546.10533,-0.016,0.088,-0.99,192,0,0,0,0,0,0,0,0,0,0
 2023-06-24 15:04:57.234,-73188.35088,36493.42495,8905.426729,33311.76589,26079.88132,-50652.36099,20205.93228,-65691.24051,-0.016,0.088,-0.99,192,0,0,0,0,0,0,0,0,0,0
 2023-06-24 15:04:57.234,-73459.52224,36314.96862,8753.34546,33038.80638,25924.31318,-50807.28093,20052.39815,-65820.56771,-0.016,0.088,-0.99,192,0,0,0,0,0,0,0,0,0,0
 2023-06-24 15:04:57.234,-73700.76462,37497.95705,9958.79739,34110.8631,27121.27145,-52083.78906,21253.89382,-66660.72508,-0.016,0.088,-0.99,192,0,0,0,0,0,0,0,0,0,0
 2023-06-24 15:04:57.234,-73580.15461,38504.92549,10955.66284,35125.00645,28111.99017,-52791.51235,22251.25101,-67113.66083,-0.016,0.088,-0.99,192,0,0,0,0,0,0,0,0,0,0
 2023-06-24 15:04:57.234,-73251.58396,38002.90531,10423.35605,34746.77023,27590.74749,-51984.72613,21718.56424,-66577.46483,-0.014,0.09,-0.99,192,255,144,2,208,225,16,0,0,0,0
 2023-06-24 15:04:57.234,-73173.1964,36476.34822,8893.066215,33280.60755,26060.48001,-50664.20742,20185.83807,-65719.9625,-0.014,0.09,-0.99,192,0,0,0,0,0,0,0,0,0,0
 2023-06-24 15:04:57.234,-73447.83228,36270.77922,8714.52048,32989.07375,25880.72728,-50806.99036,20007.85112,-65844.37231,-0.014,0.09,-0.99,192,0,0,0,0,0,0,0,0,0,0
 2023-06-24 15:04:57.234,-73678.45758,37533.56338,10002.20448,34144.97186,27166.06434,-52069.32748,21306.1522,-66673.2644,-0.014,0.09,-0.99,192,0,0,0,0,0,0,0,0,0,0
 2023-06-24 15:04:57.234,-73549.57742,38603.7202,11054.45755,35226.30456,28209.86846,-52781.83404,22348.86108,-67126.49073,-0.014,0.09,-0.99,192,0,0,0,0,0,0,0,0,0,0
 2023-06-24 15:04:57.234,-73221.16324,38088.80306,10504.47053,34828.68938,27666.09522,-51987.54245,21774.60006,-66599.79422,-0.014,0.09,-0.99,192,0,0,0,0,0,0,0,0,0,0
 2023-06-24 15:04:57.234,-73150.64349,36478.78456,8888.90879,33293.99625,26065.86678,-50672.20934,20167.88962,-65744.43766,-0.014,0.09,-0.99,192,0,0,0,0,0,0,0,0,0,0
 2023-06-24 15:04:57.234,-73420.36199,36286.85013,8723.416474,33007.17867,25896.52996,-50798.27318,20017.35062,-65854.78823,-0.014,0.09,-0.99,192,0,0,0,0,0,0,0,0,0,0
 2023-06-24 15:04:57.234,-73657.08931,37511.79278,9978.511629,34121.36842,27136.62709,-52057.9728,21263.68389,-66683.92619,-0.014,0.09,-0.99,192,0,0,0,0,0,0,0,0,0,0
 2023-06-24 15:04:57.234,-73524.47641,38632.93393,11096.21061,35252.90313,28242.34554,-52773.58625,22366.56366,-67137.95717,-0.014,0.09,-0.99,192,0,0,0,0,0,0,0,0,0,0
 2023-06-24 15:04:57.234,-73197.38098,38124.65526,10557.9359,34850.66114,27707.69181,-51990.24701,21840.18008,-66617.34034,-0.016,0.092,-0.988,192,255,128,2,224,225,32,0,0,0,0
 2023-06-24 15:04:57.234,-73123.10614,36532.69697,8961.596663,33322.33826,26113.72186,-50671.0247,20238.54348,-65759.48039,-0.016,0.092,-0.988,192,0,0,0,0,0,0,0,0,0,0
 2023-06-24 15:04:57.234,-73402.94998,36263.33609,8720.890727,32970.74532,25872.703,-50795.9933,19991.512,-65872.20024,-0.016,0.092,-0.988,192,0,0,0,0,0,0,0,0,0,0
 2023-06-24 15:04:57.234,-73642.73949,37489.75396,9968.498047,34088.71252,27114.9459,-52052.72014,21238.38171,-66700.24296,-0.016,0.092,-0.988,192,0,0,0,0,0,0,0,0,0,0
 2023-06-24 15:04:57.234,-73513.59111,38630.85522,11096.47883,35241.41434,28241.31736,-52776.08964,22366.25074,-67160.0854,-0.016,0.092,-0.988,192,0,0,0,0,0,0,0,0,0,0
 2023-06-24 15:04:57.234,-73185.04282,38152.95257,10582.12049,34891.25191,27742.85111,-51999.81356,21868.5668,-66643.60364,-0.016,0.092,-0.988,192,0,0,0,0,0,0,0,0,0,0
 2023-06-24 15:04:57.234,-73104.6436,36576.59579,8997.895896,33378.08351,26165.57791,-50674.1763,20298.73673,-65781.54156,-0.016,0.092,-0.988,192,0,0,0,0,0,0,0,0,0,0
 2023-06-24 15:04:57.234,-73382.87811,36288.52651,8735.352306,33007.20102,25905.62712,-50786.24794,20036.14843,-65887.55588,-0.016,0.092,-0.988,192,0,0,0,0,0,0,0,0,0,0
 2023-06-24 15:04:57.235,-73627.00386,37481.2603,9949.119085,34093.67461,27111.52609,-52039.17498,21233.1514,-66714.59278,-0.016,0.092,-0.988,192,0,0,0,0,0,0,0,0,0,0
 2023-06-24 15:04:57.235,-73509.38898,38581.10024,11036.64321,35207.6632,28193.52933,-52782.83987,22308.96322,-67189.5897,-0.016,0.092,-0.988,192,0,0,0,0,0,0,0,0,0,0
 2023-06-24 15:04:57.235,-73180.21484,38129.50559,10555.18664,34861.92642,27717.83951,-52023.48405,21861.97303,-66684.08265,-0.02,0.096,-0.988,192,255,96,3,0,225,32,0,0,0,0
 2023-06-24 15:04:57.235,-73091.61253,36569.35383,8986.742376,33378.77642,26168.10366,-50688.54847,20317.02045,-65815.56091,-0.02,0.096,-0.988,192,0,0,0,0,0,0,0,0,0,0
 2023-06-24 15:04:57.235,-73362.47097,36289.7335,8729.607907,33030.71505,25918.21115,-50777.3743,20044.30682,-65904.87849,-0.02,0.096,-0.988,192,0,0,0,0,0,0,0,0,0,0
 2023-06-24 15:04:57.235,-73607.17787,37472.43136,9939.552538,34102.57061,27111.77195,-52022.09825,21244.61785,-66723.73464,-0.02,0.096,-0.988,192,0,0,0,0,0,0,0,0,0,0
 2023-06-24 15:04:57.235,-73500.69416,38555.88747,11016.34783,35188.06072,28174.39624,-52785.05269,22306.32571,-67210.95797,-0.02,0.096,-0.988,192,0,0,0,0,0,0,0,0,0,0
 2023-06-24 15:04:57.235,-73174.15752,38128.70093,10554.24786,34869.59307,27718.62182,-52040.80666,21843.37638,-66715.62096,-0.02,0.096,-0.988,192,0,0,0,0,0,0,0,0,0,0
 2023-06-24 15:04:57.235,-73089.42206,36515.62023,8935.109846,33316.41505,26104.0212,-50704.08293,20226.42883,-65847.3898,-0.02,0.096,-0.988,192,0,0,0,0,0,0,0,0,0,0
 2023-06-24 15:04:57.235,-73355.07254,36270.30984,8721.449521,32973.49459,25884.75059,-50772.59103,20001.7044,-65921.86581,-0.02,0.096,-0.988,192,0,0,0,0,0,0,0,0,0,0
 2023-06-24 15:04:57.235,-73607.06611,37419.81535,9892.613875,34033.9284,27059.08889,-52016.48796,21178.00965,-66740.23023,-0.02,0.096,-0.988,192,0,0,0,0,0,0,0,0,0,0
 2023-06-24 15:04:57.235,-73500.51534,38534.60861,10995.67246,35159.6293,28160.78403,-52785.61148,22280.59885,-67230.91808,-0.02,0.096,-0.988,192,0,0,0,0,0,0,0,0,0,0
 2023-06-24 15:04:57.235,-73172.05646,38127.91862,10553.51026,34865.5027,27726.35552,-52051.53549,21846.43857,-66742.24189,-0.024,0.09,-0.99,192,255,64,2,208,225,16,0,0,0,0
 2023-06-24 15:04:57.235,-73081.17426,36548.85728,8965.083535,33344.93588,26138.35348,-50705.24522,20264.18093,-65867.05933,-0.024,0.09,-0.99,192,0,0,0,0,0,0,0,0,0,0
 2023-06-24 15:04:57.235,-73347.11532,36278.53528,8723.416474,32989.90077,25894.18303,-50762.21982,20014.35548,-65933.55577,-0.024,0.09,-0.99,192,0,0,0,0,0,0,0,0,0,0
 2023-06-24 15:04:57.235,-73589.98937,37479.09218,9947.219187,34091.12651,27110.76613,-51996.12552,21230.33508,-66744.09708,-0.024,0.09,-0.99,192,0,0,0,0,0,0,0,0,0,0
 2023-06-24 15:04:57.235,-73483.2598,38609.84458,11070.64021,35226.75159,28225.91701,-52774.72619,22341.08267,-67240.127,-0.024,0.09,-0.99,192,0,0,0,0,0,0,0,0,0,0
 2023-06-24 15:04:57.235,-73159.62889,38179.88642,10612.67532,34910.20619,27774.43412,-52055.00001,21889.80095,-66761.33028,-0.024,0.09,-0.99,192,0,0,0,0,0,0,0,0,0,0
 2023-06-24 15:04:57.235,-73070.37837,36547.42677,8973.97953,33348.60156,26141.95211,-50708.48622,20273.85924,-65885.61128,-0.024,0.09,-0.99,192,0,0,0,0,0,0,0,0,0,0
 2023-06-24 15:04:57.235,-73341.25916,36205.17685,8659.42343,32931.36155,25828.98299,-50756.18485,19952.91054,-65948.71026,-0.024,0.09,-0.99,192,0,0,0,0,0,0,0,0,0,0
 2023-06-24 15:04:57.235,-73585.83195,37418.98834,9896.860706,34043.58435,27063.82746,-51983.7203,21172.42171,-66756.32349,-0.024,0.09,-0.99,192,0,0,0,0,0,0,0,0,0,0
 2023-06-24 15:04:57.235,-73486.29963,38554.79223,11024.17094,35181.06463,28185.05802,-52777.16253,22297.67559,-67262.88107,-0.024,0.09,-0.99,192,0,0,0,0,0,0,0,0,0,0
 2023-06-24 15:04:57.235,-73162.66872,38162.47441,10599.95718,34888.70381,27760.15136,-52070.28861,21889.46568,-66795.08141,-0.022,0.09,-0.992,192,255,80,2,208,225,0,0,0,0,0
 2023-06-24 15:04:57.235,-73070.11015,36528.85247,8952.991242,33338.96796,26124.04837,-50717.96336,20253.56385,-65918.78127,-0.022,0.09,-0.992,192,0,0,0,0,0,0,0,0,0,0
 2023-06-24 15:04:57.235,-73332.38552,36221.0913,8671.940407,32956.37315,25845.23271,-50745.25484,19981.02903,-65968.26803,-0.022,0.09,-0.992,192,0,0,0,0,0,0,0,0,0,0
 2023-06-24 15:04:57.235,-73578.50058,37412.23811,9882.868514,34031.15678,27049.79057,-51970.1975,21185.85511,-66774.31664,-0.022,0.09,-0.992,192,0,0,0,0,0,0,0,0,0,0
 2023-06-24 15:04:57.235,-73481.51636,38535.94971,10989.70455,35163.45145,28154.92787,-52771.90987,22281.69409,-67287.78092,-0.022,0.09,-0.992,192,0,0,0,0,0,0,0,0,0,0
 2023-06-24 15:04:57.235,-73162.64637,38115.11107,10539.62982,34847.64366,27706.64128,-52083.31967,21840.4483,-66830.06189,-0.022,0.09,-0.992,192,0,0,0,0,0,0,0,0,0,0
 2023-06-24 15:04:57.235,-73056.09561,36544.31987,8957.483942,33346.32168,26132.11735,-50723.64071,20271.86993,-65944.91046,-0.022,0.09,-0.992,192,0,0,0,0,0,0,0,0,0,0
 2023-06-24 15:04:57.235,-73319.39916,36195.25268,8633.718924,32911.26733,25808.75466,-50741.85738,19947.16614,-65987.42348,-0.022,0.09,-0.992,192,0,0,0,0,0,0,0,0,0,0
 2023-06-24 15:04:57.235,-73574.16434,37340.42196,9804.592705,33945.66136,26971.20183,-51968.2976,21087.93212,-66795.52845,-0.022,0.09,-0.992,192,0,0,0,0,0,0,0,0,0,0
 2023-06-24 15:04:57.235,-73472.77683,38548.73491,11002.13212,35162.57973,28169.21063,-52773.40743,22277.3802,-67307.65162,-0.022,0.09,-0.992,192,0,0,0,0,0,0,0,0,0,0
 2023-06-24 15:04:57.235,-73148.98946,38175.0808,10592.17877,34900.34907,27766.92394,-52093.9591,21881.10612,-66854.84998,-0.022,0.09,-0.992,192,0,0,0,0,0,0,0,0,0,0
 2023-06-24 15:04:57.235,-73049.47949,36521.34228,8927.465549,33319.83487,26108.13392,-50740.8739,20234.09548,-65973.83362,-0.018,0.088,-0.996,192,255,112,2,192,224,224,0,0,0,0
 2023-06-24 15:04:57.235,-73307.26216,36190.4247,8627.505139,32903.01954,25802.87615,-50741.4327,19914.93492,-66004.18729,-0.018,0.088,-0.996,192,0,0,0,0,0,0,0,0,0,0
 2023-06-24 15:04:57.235,-73555.27712,37376.56473,9839.908462,33983.90519,27010.42915,-51955.15477,21123.04671,-66801.58577,-0.018,0.088,-0.996,192,0,0,0,0,0,0,0,0,0,0
 2023-06-24 15:04:57.713,-73463.4338,38532.12756,10985.2789,35154.86838,28161.05225,-52778.63774,22263.18684,-67326.06945,-0.018,0.088,-0.996,192,0,0,0,0,0,0,0,0,0,0
 2023-06-24 15:04:57.713,-73141.25575,38169.09053,10592.42464,34903.23244,27774.36707,-52113.1369,21896.1712,-66881.69442,-0.018,0.088,-0.996,192,0,0,0,0,0,0,0,0,0,0
 2023-06-24 15:04:57.713,-73029.56409,36570.13614,8979.187486,33382.24094,26166.82961,-50745.3219,20296.54626,-65991.78207,-0.018,0.088,-0.996,192,0,0,0,0,0,0,0,0,0,0
 2023-06-24 15:04:57.713,-73292.97939,36164.1167,8599.20783,32898.21391,25786.49232,-50737.72231,19908.16234,-66019.98997,-0.018,0.088,-0.996,192,0,0,0,0,0,0,0,0,0,0
 2023-06-24 15:04:57.713,-73553.62309,37269.18695,9732.150702,33887.12214,26905.10773,-51960.38508,21022.84384,-66826.73148,-0.018,0.088,-0.996,192,0,0,0,0,0,0,0,0,0,0
 2023-06-24 15:04:57.713,-73463.61261,38448.19676,10902.6445,35055.26901,28062.79398,-52796.76501,22190.05194,-67360.46879,-0.018,0.088,-0.996,192,0,0,0,0,0,0,0,0,0,0
 2023-06-24 15:04:57.713,-73136.71835,38126.73397,10552.1021,34850.86231,27721.99693,-52140.87542,21859.51434,-66920.92173,-0.018,0.088,-0.996,192,0,0,0,0,0,0,0,0,0,0
 2023-06-24 15:04:57.713,-73022.38918,36513.2286,8926.996163,33326.22747,26108.35744,-50768.21009,20227.81464,-66026.51668,-0.014,0.092,-0.992,192,255,144,2,224,225,0,0,0,0,0
 2023-06-24 15:04:57.713,-73284.7763,36100.0119,8544.669574,32836.85837,25719.32533,-50744.85251,19813.94974,-66041.60411,-0.014,0.092,-0.992,192,0,0,0,0,0,0,0,0,0,0
 2023-06-24 15:04:57.713,-73540.41321,37251.66318,9724.662867,33867.05027,26885.30408,-51956.27236,20992.64663,-66839.29316,-0.014,0.092,-0.992,192,0,0,0,0,0,0,0,0,0,0
 2023-06-24 15:04:57.713,-73449.62042,38448.12971,10911.51815,35051.55862,28063.17396,-52802.66587,22200.13257,-67380.89828,-0.014,0.092,-0.992,192,0,0,0,0,0,0,0,0,0,0
 2023-06-24 15:04:57.713,-73127.33062,38099.68836,10527.02344,34828.21999,27698.59465,-52164.79178,21826.21024,-66956.14808,-0.014,0.092,-0.992,192,0,0,0,0,0,0,0,0,0,0
 2023-06-24 15:04:57.713,-73007.77114,36470.3803,8885.511325,33294.06331,26071.05238,-50788.43841,20189.61551,-66060.40192,-0.014,0.092,-0.992,192,0,0,0,0,0,0,0,0,0,0
 2023-06-24 15:04:57.714,-73262.22339,36060.11403,8507.006884,32787.75159,25681.37207,-50748.65231,19808.89825,-66065.09579,-0.014,0.092,-0.992,192,0,0,0,0,0,0,0,0,0,0
 2023-06-24 15:04:57.714,-73523.18001,37168.02295,9637.602822,33777.688,26804.68134,-51960.20627,20937.1696,-66863.29894,-0.014,0.092,-0.992,192,0,0,0,0,0,0,0,0,0,0
 2023-06-24 15:04:57.714,-73439.94211,38347.74802,10805.66028,34956.36254,27973.3423,-52820.23434,22096.39813,-67414.15768,-0.014,0.092,-0.992,192,0,0,0,0,0,0,0,0,0,0
 2023-06-24 15:04:57.714,-73106.38703,38118.39677,10543.34021,34824.15197,27706.06014,-52183.79077,21826.74668,-66986.07707,-0.014,0.092,-0.992,192,0,0,0,0,0,0,0,0,0,0
 2023-06-24 15:04:57.714,-72975.51757,36550.4666,8963.116582,33332.86593,26127.98227,-50797.49087,20248.42295,-66080.80907,-0.016,0.096,-0.988,192,255,128,3,0,225,32,0,0,0,0
 2023-06-24 15:04:57.714,-73226.70647,36131.77373,8577.951321,32828.49882,25738.77135,-50739.26458,19864.86702,-66074.93056,-0.016,0.096,-0.988,192,0,0,0,0,0,0,0,0,0,0
 2023-06-24 15:04:57.714,-73488.46775,37241.89547,9709.888364,33834.03675,26866.01452,-51941.02847,20994.88181,-66868.61865,-0.016,0.096,-0.988,192,0,0,0,0,0,0,0,0,0,0
 2023-06-24 15:04:57.714,-73413.43295,38403.00154,10858.32099,34994.47226,28013.46368,-52813.70763,22149.84115,-67428.48515,-0.016,0.096,-0.988,192,0,0,0,0,0,0,0,0,0,0
 2023-06-24 15:04:57.714,-73098.85449,38072.39688,10493.78639,34786.35517,27658.80855,-52204.33202,21772.11902,-67020.76698,-0.016,0.096,-0.988,192,0,0,0,0,0,0,0,0,0,0
 2023-06-24 15:04:57.714,-72969.08027,36498.43174,8909.986485,33299.85241,26084.61989,-50818.12153,20191.69422,-66114.26963,-0.016,0.096,-0.988,192,0,0,0,0,0,0,0,0,0,0
 2023-06-24 15:04:57.714,-73226.92999,36027.94987,8470.059451,32747.74197,25640.75895,-50751.0663,19763.27834,-66102.22204,-0.016,0.096,-0.988,192,0,0,0,0,0,0,0,0,0,0
 2023-06-24 15:04:57.714,-73496.22381,37121.12899,9585.992645,33733.72212,26757.94384,-51950.01387,20875.50114,-66893.33968,-0.016,0.096,-0.988,192,0,0,0,0,0,0,0,0,0,0
 2023-06-24 15:04:57.714,-73422.28424,38342.87534,10798.21715,34954.28383,27968.73784,-52829.10798,22080.30487,-67454.8155,-0.016,0.096,-0.988,192,0,0,0,0,0,0,0,0,0,0
 2023-06-24 15:04:57.714,-73107.86225,38059.56698,10483.99633,34777.43683,27657.5792,-52231.04235,21774.89063,-67053.80285,-0.016,0.096,-0.988,192,0,0,0,0,0,0,0,0,0,0
 2023-06-24 15:04:57.714,-72978.87033,36468.83803,8877.24118,33273.90203,26063.89982,-50844.20602,20184.13933,-66148.89248,-0.016,0.1,-0.99,192,255,128,3,32,225,16,0,0,0,0
 2023-06-24 15:04:57.714,-73223.89015,36043.082,8478.486059,32757.80025,25656.74045,-50754.352,19785.22775,-66122.31626,-0.016,0.1,-0.99,192,0,0,0,0,0,0,0,0,0,0
 2023-06-24 15:04:57.714,-73488.69127,37148.1299,9612.054779,33750.7318,26778.82037,-51944.96238,20905.05015,-66908.53887,-0.016,0.1,-0.99,192,0,0,0,0,0,0,0,0,0,0
 2023-06-24 15:04:57.714,-73418.90912,38337.57798,10791.77985,34953.9709,27962.12172,-52833.9136,22078.8073,-67477.97191,-0.016,0.1,-0.99,192,0,0,0,0,0,0,0,0,0,0
 2023-06-24 15:04:57.714,-73108.46574,38041.2609,10463.96917,34764.40576,27641.08361,-52246.97915,21767.38045,-67086.07877,-0.016,0.1,-0.99,192,0,0,0,0,0,0,0,0,0,0
 2023-06-24 15:04:57.714,-72979.04914,36451.31426,8869.954511,33251.86321,26043.38092,-50857.48295,20181.12185,-66182.44245,-0.016,0.1,-0.99,192,0,0,0,0,0,0,0,0,0,0
 2023-06-24 15:04:57.714,-73228.49461,35991.62829,8439.526968,32708.84993,25604.61618,-50755.22372,19752.52715,-66147.66313,-0.016,0.1,-0.99,192,0,0,0,0,0,0,0,0,0,0
 2023-06-24 15:04:57.714,-73505.768,37042.45085,9512.209536,33646.81854,26675.39885,-51946.70581,20831.78113,-66934.35513,-0.016,0.1,-0.99,192,0,0,0,0,0,0,0,0,0,0
 2023-06-24 15:04:57.714,-73437.59518,38286.03486,10744.28239,34893.44238,27908.0305,-52843.4578,22027.39829,-67510.78427,-0.016,0.1,-0.99,192,0,0,0,0,0,0,0,0,0,0
 2023-06-24 15:04:57.714,-73128.4035,38011.26486,10439.96339,34723.3456,27600.89518,-52269.06267,21704.50499,-67126.44602,-0.016,0.1,-0.99,192,0,0,0,0,0,0,0,0,0,0
 2023-06-24 15:04:57.714,-72991.32025,36452.90124,8867.853447,33247.52697,26031.86977,-50876.52664,20149.22591,-66218.04878,-0.016,0.098,-0.988,192,255,128,3,16,225,32,0,0,0,0
 2023-06-24 15:04:57.714,-73230.55097,36021.78079,8458.414192,32733.25804,25626.27502,-50756.00603,19752.75067,-66170.2831,-0.016,0.098,-0.988,192,0,0,0,0,0,0,0,0,0,0
 2023-06-24 15:04:57.714,-73504.5163,37079.37593,9539.612775,33666.73394,26696.49889,-51935.28407,20816.13491,-66949.08493,-0.016,0.098,-0.988,192,0,0,0,0,0,0,0,0,0,0
 2023-06-24 15:04:57.714,-73443.74191,38294.52852,10745.6235,34871.02358,27902.979,-52844.62009,22016.31183,-67532.66663,-0.016,0.098,-0.988,192,0,0,0,0,0,0,0,0,0,0
 2023-06-24 15:04:57.714,-73125.92246,38087.28314,10508.22562,34769.01022,27671.6161,-52274.67296,21789.75454,-67147.09904,-0.016,0.098,-0.988,192,0,0,0,0,0,0,0,0,0,0
 2023-06-24 15:04:57.714,-72993.57778,36471.92257,8876.391813,33254.45601,26051.87458,-50887.41194,20164.29098,-66242.7251,-0.016,0.098,-0.988,192,0,0,0,0,0,0,0,0,0,0
 2023-06-24 15:04:57.714,-73251.82983,35891.76069,8322.604993,32598.99111,25494.53384,-50770.57937,19607.17375,-66201.91082,-0.016,0.098,-0.988,192,0,0,0,0,0,0,0,0,0,0
 2023-06-24 15:04:57.714,-73528.36562,36972.08756,9428.614012,33573.63892,26601.23576,-51943.82244,20713.56275,-66975.12471,-0.016,0.098,-0.988,192,0,0,0,0,0,0,0,0,0,0
 2023-06-24 15:04:57.714,-73473.80501,38180.40051,10630.24379,34777.70505,27800.63037,-52865.69779,21914.34317,-67567.15537,-0.016,0.098,-0.988,192,0,0,0,0,0,0,0,0,0,0
 2023-06-24 15:04:57.714,-73161.88641,37958.73826,10379.52428,34662.68297,27550.44729,-52312.11213,21663.26602,-67195.15529,-0.016,0.098,-0.988,192,0,0,0,0,0,0,0,0,0,0
 2023-06-24 15:04:57.714,-73024.71376,36356.83344,8763.739021,33147.9723,25944.34034,-50921.34189,20066.52445,-66287.69681,-0.022,0.098,-0.99,192,255,80,3,16,225,16,0,0,0,0
 2023-06-24 15:04:57.714,-73262.62573,35891.04544,8327.120045,32607.2389,25508.99541,-50774.08859,19634.91227,-66223.27909,-0.022,0.098,-0.99,192,0,0,0,0,0,0,0,0,0,0
 2023-06-24 15:04:57.714,-73535.92051,36976.66967,9438.985221,33590.93918,26617.48548,-51937.07221,20730.39362,-66989.94392,-0.022,0.098,-0.99,192,0,0,0,0,0,0,0,0,0,0
 2023-06-24 15:04:57.714,-73483.63977,38202.12641,10659.05519,34812.41731,27831.09579,-52867.08359,21933.43156,-67588.70245,-0.022,0.098,-0.99,192,0,0,0,0,0,0,0,0,0,0
 2023-06-24 15:04:57.714,-73179.29842,37947.6965,10378.65256,34662.83943,27550.29083,-52330.55232,21658.43805,-67230.64986,-0.022,0.098,-0.99,192,0,0,0,0,0,0,0,0,0,0
 2023-06-24 15:04:57.714,-73042.46104,36343.06477,8761.839123,33140.17154,25936.78545,-50939.89383,20053.78396,-66323.63842,-0.022,0.098,-0.99,192,0,0,0,0,0,0,0,0,0,0
 2023-06-24 15:04:57.714,-73279.09896,35855.12618,8299.985027,32574.73947,25472.07033,-50781.79995,19595.37203,-66251.7105,-0.022,0.098,-0.99,192,0,0,0,0,0,0,0,0,0,0
 2023-06-24 15:04:57.715,-73551.11969,36937.93409,9406.016398,33543.68759,26570.70328,-51939.35209,20693.31207,-67015.2461,-0.022,0.098,-0.99,192,0,0,0,0,0,0,0,0,0,0
 2023-06-24 15:04:57.715,-73493.76511,38198.77365,10661.11155,34794.87119,27820.83634,-52874.862,21950.37418,-67616.17274,-0.022,0.098,-0.99,192,0,0,0,0,0,0,0,0,0,0
 2023-06-24 15:04:57.715,-73184.66284,37968.64009,10399.95377,34677.36807,27568.32869,-52349.37249,21693.19501,-67263.70809,-0.022,0.098,-0.99,192,0,0,0,0,0,0,0,0,0,0
 2023-06-24 15:04:57.715,-73029.7876,36460.25496,8878.470526,33256.28886,26046.48781,-50946.19703,20172.91876,-66343.48677,-0.024,0.092,-0.988,192,255,64,2,224,225,32,0,0,0,0
 2023-06-24 15:04:57.715,-73265.15147,35931.41269,8376.651511,32658.40204,25544.86996,-50773.4851,19675.90537,-66262.19347,-0.024,0.092,-0.988,192,0,0,0,0,0,0,0,0,0,0
 2023-06-24 15:04:57.715,-73557.66875,36888.96142,9356.529636,33498.73823,26519.85306,-51935.10526,20660.94675,-67033.01573,-0.024,0.092,-0.988,192,0,0,0,0,0,0,0,0,0,0
 2023-06-24 15:04:57.715,-73504.69512,38179.72996,10638.37983,34775.69339,27794.86362,-52877.79008,21932.93982,-67639.64208,-0.024,0.092,-0.988,192,0,0,0,0,0,0,0,0,0,0
 2023-06-24 15:04:57.715,-73195.34697,37982.22995,10407.64277,34684.45357,27572.28495,-52359.43077,21700.92871,-67293.07828,-0.024,0.092,-0.988,192,0,0,0,0,0,0,0,0,0,0
 2023-06-24 15:04:57.715,-73052.8099,36373.23962,8783.475612,33162.56799,25950.10709,-50964.88308,20073.34174,-66383.38463,-0.024,0.092,-0.988,192,0,0,0,0,0,0,0,0,0,0
 2023-06-24 15:04:57.715,-73298.8579,35768.91551,8206.197108,32491.41216,25375.26493,-50786.53852,19510.81538,-66300.88434,-0.024,0.092,-0.988,192,0,0,0,0,0,0,0,0,0,0
 2023-06-24 15:04:57.715,-73577.33829,36835.45134,9297.565734,33450.3467,26467.63938,-51925.65047,20596.3502,-67052.55116,-0.024,0.092,-0.988,192,0,0,0,0,0,0,0,0,0,0
 2023-06-24 15:04:57.715,-73522.91179,38153.24314,10610.44015,34747.95487,27768.89089,-52872.73858,21902.04971,-67660.20568,-0.024,0.092,-0.988,192,0,0,0,0,0,0,0,0,0,0
 2023-06-24 15:04:57.715,-73219.68802,37941.77329,10373.98104,34633.98333,27528.69904,-52372.55125,21648.9162,-67325.60007,-0.024,0.092,-0.988,192,0,0,0,0,0,0,0,0,0,0
 2023-06-24 15:04:57.715,-73069.35019,36384.63901,8801.78169,33167.28421,25962.46761,-50973.95789,20085.00935,-66410.25143,-0.026,0.094,-0.984,192,255,48,2,240,225,64,0,0,0,0
 2023-06-24 15:04:57.715,-73303.70823,35811.09325,8253.672213,32537.50146,25421.82361,-50775.29559,19542.97954,-66312.26138,-0.026,0.094,-0.984,192,0,0,0,0,0,0,0,0,0,0
 2023-06-24 15:04:57.715,-73579.97579,36864.44156,9330.489854,33479.69454,26496.33902,-51907.23263,20615.90798,-67059.25668,-0.026,0.094,-0.984,192,0,0,0,0,0,0,0,0,0,0
 2023-06-24 15:04:57.715,-73537.48513,38130.53377,10592.17877,34723.61383,27747.45557,-52869.38582,21865.50461,-67678.91409,-0.026,0.094,-0.984,192,0,0,0,0,0,0,0,0,0,0
 2023-06-24 15:04:57.715,-73228.62872,37974.78682,10406.34637,34666.75099,27563.50071,-52377.04395,21692.90444,-67347.48242,-0.026,0.094,-0.984,192,0,0,0,0,0,0,0,0,0,0
 2023-06-24 15:04:57.715,-73080.14608,36383.54378,8798.361873,33178.16951,25972.83882,-50983.70325,20113.91015,-66436.78295,-0.026,0.094,-0.984,192,0,0,0,0,0,0,0,0,0,0
 2023-06-24 15:04:57.715,-73317.67807,35775.2634,8221.262183,32504.17501,25393.68277,-50772.52397,19522.95238,-66332.46736,-0.026,0.094,-0.984,192,0,0,0,0,0,0,0,0,0,0
 2023-06-24 15:04:57.715,-73595.59966,36831.0257,9305.165327,33448.55856,26470.32159,-51894.89447,20598.33951,-67073.15946,-0.026,0.094,-0.984,192,0,0,0,0,0,0,0,0,0,0
 2023-06-24 15:04:57.715,-73544.8612,38194.50446,10662.13973,34789.55147,27823.13857,-52854.3878,21955.62684,-67688.86062,-0.026,0.094,-0.984,192,0,0,0,0,0,0,0,0,0,0
 2023-06-24 15:04:57.715,-73236.47418,38051.02862,10488.82431,34752.38052,27656.17104,-52371.54542,21792.9732,-67364.62621,-0.026,0.094,-0.984,192,0,0,0,0,0,0,0,0,0,0
 2023-06-24 15:04:57.715,-73084.05764,36469.57564,8893.401491,33275.53371,26069.13013,-50974.96372,20192.56594,-66451.06571,-0.024,0.096,-0.982,192,255,64,3,0,225,80,0,0,0,0
 2023-06-24 15:04:57.715,-73319.22034,35819.87748,8274.369928,32558.5121,25441.96253,-50752.318,19571.54507,-66340.60339,-0.024,0.096,-0.982,192,0,0,0,0,0,0,0,0,0,0
 2023-06-24 15:04:57.715,-73611.15648,36763.00934,9246.603757,33380.89983,26401.99231,-51879.2706,20543.7342,-67087.39753,-0.024,0.096,-0.982,192,0,0,0,0,0,0,0,0,0,0
 2023-06-24 15:04:57.715,-73564.48603,38132.50072,10609.7696,34732.26395,27764.46524,-52851.68324,21891.38793,-67709.26776,-0.024,0.096,-0.982,192,0,0,0,0,0,0,0,0,0,0
 2023-06-24 15:04:57.715,-73254.06501,38017.501,10462.58336,34728.15123,27625.68326,-52381.15667,21746.21335,-67391.94004,-0.024,0.096,-0.982,192,0,0,0,0,0,0,0,0,0,0
 2023-06-24 15:04:57.715,-73101.31319,36417.83135,8845.412296,33217.75445,26014.05543,-50983.74796,20147.48247,-66479.743,-0.024,0.096,-0.982,192,0,0,0,0,0,0,0,0,0,0
 2023-06-24 15:04:57.715,-73330.97736,35799.24682,8254.007489,32533.14287,25421.89067,-50742.86321,19562.53732,-66354.30501,-0.024,0.096,-0.982,192,0,0,0,0,0,0,0,0,0,0
 2023-06-24 15:04:57.715,-73610.15065,36824.00725,9304.204202,33444.26703,26463.3255,-51854.41546,20599.27828,-67087.15166,-0.024,0.096,-0.982,192,0,0,0,0,0,0,0,0,0,0
 2023-06-24 15:04:57.715,-73577.94178,38119.51436,10595.57624,34718.71879,27745.51097,-52845.64827,21878.53567,-67722.41059,-0.024,0.096,-0.982,192,0,0,0,0,0,0,0,0,0,0
 2023-06-24 15:04:57.715,-73273.86865,37989.31545,10439.00227,34687.91809,27587.81941,-52391.95256,21721.17939,-67413.71064,-0.024,0.096,-0.982,192,0,0,0,0,0,0,0,0,0,0
 2023-06-24 15:04:57.715,-73103.59306,36472.19079,8904.107976,33260.69215,26060.50236,-50983.85972,20210.62615,-66487.47671,-0.024,0.098,-0.98,192,255,64,3,16,225,96,0,0,0,0
 2023-06-24 15:04:57.715,-73325.54589,35858.72482,8312.747873,32590.43039,25470.61747,-50725.02652,19622.44,-66349.83466,-0.024,0.098,-0.98,192,0,0,0,0,0,0,0,0,0,0
 2023-06-24 15:04:57.715,-73610.46357,36833.5738,9309.970952,33456.60519,26467.05824,-51833.62834,20611.70585,-67081.67548,-0.024,0.098,-0.98,192,0,0,0,0,0,0,0,0,0,0
 2023-06-24 15:04:57.715,-73575.97483,38167.01182,10638.0222,34760.20363,27787.50989,-52830.73966,21923.61914,-67721.78474,-0.024,0.098,-0.98,192,0,0,0,0,0,0,0,0,0,0
 2023-06-24 15:04:57.715,-73266.67139,38076.4649,10515.84757,34771.3795,27669.58209,-52384.73295,21796.70594,-67421.37729,-0.024,0.098,-0.98,192,0,0,0,0,0,0,0,0,0,0
 2023-06-24 15:04:57.715,-73106.45409,36468.59216,8892.10509,33268.47056,26056.68021,-50984.68673,20183.60289,-66506.34158,-0.024,0.098,-0.98,192,0,0,0,0,0,0,0,0,0,0
 2023-06-24 15:04:57.716,-73328.38456,35818.42462,8265.540989,32555.44991,25430.42903,-50714.87882,19564.75014,-66361.70344,-0.024,0.098,-0.98,192,0,0,0,0,0,0,0,0,0,0
 2023-06-24 15:04:57.716,-73609.21188,36805.92469,9279.974911,33424.6422,26437.46453,-51814.53995,20570.15396,-67088.3363,-0.024,0.098,-0.98,192,0,0,0,0,0,0,0,0,0,0
 2023-06-24 15:04:57.716,-73574.34315,38167.4812,10638.31277,34755.15214,27787.97928,-52813.10413,21915.52781,-67731.46304,-0.024,0.098,-0.98,192,0,0,0,0,0,0,0,0,0,0
 2023-06-24 15:04:57.716,-73260.68112,38125.37052,10563.90382,34820.97802,27724.00859,-52376.26164,21842.86229,-67435.83887,-0.024,0.098,-0.98,192,0,0,0,0,0,0,0,0,0,0
 2023-06-24 15:04:57.716,-73089.73498,36565.68814,8986.854134,33358.99512,26154.73731,-50975.90249,20283.53754,-66517.87508,-0.022,0.102,-0.982,192,255,80,3,48,225,80,0,0,0,0
 2023-06-24 15:04:57.716,-73314.37001,35884.27286,8330.673972,32620.42643,25498.33363,-50697.17624,19622.73057,-66367.49254,-0.022,0.102,-0.982,192,0,0,0,0,0,0,0,0,0,0
 2023-06-24 15:04:57.716,-73601.09819,36851.96928,9327.137092,33470.128,26488.73943,-51791.20473,20607.21315,-67092.8737,-0.022,0.102,-0.982,192,0,0,0,0,0,0,0,0,0,0
 2023-06-24 15:04:57.716,-73584.49085,38118.35207,10590.5918,34712.34855,27746.6062,-52811.07012,21860.8778,-67752.11605,-0.022,0.102,-0.982,192,0,0,0,0,0,0,0,0,0,0
 2023-06-24 15:04:57.716,-73275.92501,38078.45421,10521.81548,34760.62831,27679.3498,-52389.8962,21796.54947,-67468.2042,-0.022,0.102,-0.982,192,0,0,0,0,0,0,0,0,0,0
 2023-06-24 15:04:57.716,-73098.60862,36549.21491,8972.280797,33337.17982,26140.96864,-50983.39033,20259.10708,-66547.37938,-0.022,0.102,-0.982,192,0,0,0,0,0,0,0,0,0,0
 2023-06-24 15:04:57.716,-73321.05319,35860.78118,8308.635152,32598.18645,25484.47555,-50687.60969,19599.82003,-66385.5751,-0.022,0.102,-0.982,192,0,0,0,0,0,0,0,0,0,0
 2023-06-24 15:04:57.716,-73605.79206,36828.87993,9299.733853,33455.28644,26478.56939,-51771.0658,20601.84873,-67099.1769,-0.022,0.102,-0.982,192,0,0,0,0,0,0,0,0,0,0
 2023-06-24 15:04:57.716,-73588.51416,38124.52115,10591.21765,34724.37378,27763.50412,-52795.91564,21891.70085,-67760.00622,-0.022,0.102,-0.982,192,0,0,0,0,0,0,0,0,0,0
 2023-06-24 15:04:57.716,-73278.38371,38119.91669,10558.85232,34811.29972,27726.132,-52388.33158,21844.49397,-67484.52097,-0.022,0.102,-0.982,192,0,0,0,0,0,0,0,0,0,0
 2023-06-24 15:04:57.716,-73107.52697,36544.90102,8968.838628,33342.29837,26136.29712,-50988.84415,20261.07404,-66567.67476,-0.016,0.098,-0.986,192,255,128,3,16,225,48,0,0,0,0
 2023-06-24 15:04:57.716,-73323.46717,35871.15239,8322.068551,32597.40413,25486.62132,-50673.90808,19618.26022,-66391.16304,-0.016,0.098,-0.986,192,0,0,0,0,0,0,0,0,0,0
 2023-06-24 15:04:57.716,-73608.18369,36827.56118,9306.595839,33443.3059,26465.44891,-51751.46332,20586.76131,-67101.1662,-0.016,0.098,-0.986,192,0,0,0,0,0,0,0,0,0,0
 2023-06-24 15:04:57.716,-73584.64731,38177.87477,10647.20877,34777.36977,27808.20761,-52776.76019,21923.038,-67758.95569,-0.016,0.098,-0.986,192,0,0,0,0,0,0,0,0,0,0
 2023-06-24 15:04:57.716,-73280.46242,38142.76017,10581.85227,34831.23747,27744.41573,-52384.42002,21878.62508,-67489.59482,-0.016,0.098,-0.986,192,0,0,0,0,0,0,0,0,0,0
 2023-06-24 15:04:57.716,-73106.20822,36576.37227,8994.319617,33372.205,26165.77907,-50989.31354,20300.9272,-66573.17329,-0.016,0.098,-0.986,192,0,0,0,0,0,0,0,0,0,0
 2023-06-24 15:04:57.716,-73316.18051,35918.58279,8355.082077,32664.59348,25541.91953,-50658.35126,19676.41946,-66384.8822,-0.016,0.098,-0.986,192,0,0,0,0,0,0,0,0,0,0
 2023-06-24 15:04:57.716,-73603.93686,36854.98677,9321.482101,33485.72951,26500.36234,-51728.91041,20617.71847,-67092.62783,-0.016,0.098,-0.986,192,0,0,0,0,0,0,0,0,0,0
 2023-06-24 15:04:57.716,-73593.76682,38159.25576,10624.20882,34758.43784,27791.30969,-52768.28888,21891.99142,-67762.62137,-0.016,0.098,-0.986,192,0,0,0,0,0,0,0,0,0,0
 2023-06-24 15:04:57.716,-73293.04645,38131.62901,10564.90964,34827.88471,27734.75978,-52390.4997,21843.33168,-67503.69877,-0.016,0.098,-0.986,192,0,0,0,0,0,0,0,0,0,0
 2023-06-24 15:04:57.716,-73100.8438,36671.85893,9086.60997,33463.71305,26261.04221,-50985.22317,20382.51107,-66580.66113,-0.02,0.094,-0.988,192,255,96,2,240,225,32,0,0,0,0
 2023-06-24 15:04:57.716,-73309.6538,35967.66722,8408.525098,32690.5662,25577.34705,-50641.34158,19701.81104,-66385.84332,-0.02,0.094,-0.988,192,0,0,0,0,0,0,0,0,0,0
 2023-06-24 15:04:57.716,-73597.9466,36883.82052,9352.595729,33478.71107,26508.11839,-51703.65294,20642.30539,-67088.51511,-0.02,0.094,-0.988,192,0,0,0,0,0,0,0,0,0,0
 2023-06-24 15:04:58.196,-73577.65121,38282.0786,10744.86354,34863.80397,27905.68357,-52738.98575,22034.26028,-67754.66415,-0.02,0.094,-0.988,192,0,0,0,0,0,0,0,0,0,0
 2023-06-24 15:04:58.196,-73271.61113,38312.34286,10743.47773,35002.63065,27919.31813,-52368.55028,22046.28552,-67499.40723,-0.02,0.094,-0.988,192,0,0,0,0,0,0,0,0,0,0
 2023-06-24 15:04:58.196,-73091.70194,36737.19308,9153.866369,33527.68374,26330.1091,-50980.4399,20449.27573,-66587.61252,-0.02,0.094,-0.988,192,0,0,0,0,0,0,0,0,0,0
 2023-06-24 15:04:58.196,-73308.55856,35966.57198,8410.134424,32703.57492,25584.38785,-50631.57387,19693.13856,-66390.0678,-0.02,0.094,-0.988,192,0,0,0,0,0,0,0,0,0,0
 2023-06-24 15:04:58.196,-73595.51026,36900.49492,9369.493648,33515.45733,26536.92979,-51684.36339,20655.8729,-67087.24106,-0.02,0.094,-0.988,192,0,0,0,0,0,0,0,0,0,0
 2023-06-24 15:04:58.196,-73585.1614,38239.45382,10706.10561,34820.21806,27865.89746,-52730.60384,21988.57331,-67761.83906,-0.02,0.094,-0.988,192,0,0,0,0,0,0,0,0,0,0
 2023-06-24 15:04:58.196,-73287.03383,38226.19924,10659.85986,34911.86022,27830.78287,-52375.25581,21952.4976,-67518.8309,-0.02,0.094,-0.988,192,0,0,0,0,0,0,0,0,0,0
 2023-06-24 15:04:58.196,-73100.12854,36704.62658,9113.052084,33507.67893,26304.85163,-50981.42338,20438.56924,-66603.16933,-0.018,0.098,-0.99,192,255,112,3,16,225,16,0,0,0,0
 2023-06-24 15:04:58.196,-73309.0503,35974.84213,8413.330723,32709.83341,25599.36352,-50613.89364,19721.25706,-66389.84429,-0.018,0.098,-0.99,192,0,0,0,0,0,0,0,0,0,0
 2023-06-24 15:04:58.196,-73601.36641,36874.20927,9343.878549,33483.09201,26509.81712,-51665.3644,20622.65821,-67085.25176,-0.018,0.098,-0.99,192,0,0,0,0,0,0,0,0,0,0
 2023-06-24 15:04:58.196,-73604.22744,38172.33153,10638.7151,34759.48838,27801.61384,-52727.63106,21913.96319,-67773.52903,-0.018,0.098,-0.99,192,0,0,0,0,0,0,0,0,0,0
 2023-06-24 15:04:58.197,-73303.37296,38226.64627,10661.51388,34908.50746,27828.65945,-52381.13432,21941.18761,-67535.30413,-0.018,0.098,-0.99,192,0,0,0,0,0,0,0,0,0,0
 2023-06-24 15:04:58.197,-73108.95748,36741.81989,9154.201645,33519.07832,26327.31513,-50987.12307,20458.37289,-66618.83791,-0.018,0.098,-0.99,192,0,0,0,0,0,0,0,0,0,0
 2023-06-24 15:04:58.197,-73308.20093,36027.30167,8463.443335,32748.01019,25637.98733,-50601.66724,19778.07519,-66395.27576,-0.018,0.098,-0.99,192,0,0,0,0,0,0,0,0,0,0
 2023-06-24 15:04:58.197,-73593.11862,36937.66587,9400.383759,33549.02965,26568.24458,-51639.16816,20695.50254,-67083.53067,-0.018,0.098,-0.99,192,0,0,0,0,0,0,0,0,0,0
 2023-06-24 15:04:58.197,-73590.36935,38226.33335,10687.91129,34816.59708,27851.86057,-52701.43482,21980.66079,-67772.54555,-0.018,0.098,-0.99,192,0,0,0,0,0,0,0,0,0,0
 2023-06-24 15:04:58.197,-73290.96774,38253.40131,10685.51966,34934.41313,27857.24734,-52362.24709,21986.18167,-67540.35563,-0.018,0.098,-0.99,192,0,0,0,0,0,0,0,0,0,0
 2023-06-24 15:04:58.197,-73088.21506,36820.54273,9228.610602,33604.0373,26410.95536,-50963.94431,20539.19679,-66621.65423,-0.018,0.096,-0.988,192,255,112,3,0,225,32,0,0,0,0
 2023-06-24 15:04:58.197,-73296.8686,36049.65342,8486.622094,32786.90222,25664.65296,-50580.47778,19777.11407,-66401.37779,-0.018,0.096,-0.988,192,0,0,0,0,0,0,0,0,0,0
 2023-06-24 15:04:58.197,-73594.03504,36900.02553,9362.497552,33522.34167,26533.33116,-51623.20901,20645.32288,-67093.94659,-0.018,0.096,-0.988,192,0,0,0,0,0,0,0,0,0,0
 2023-06-24 15:04:58.197,-73593.72212,38216.31977,10673.69558,34806.71761,27838.2707,-52690.77303,21945.90383,-67785.3084,-0.018,0.096,-0.988,192,0,0,0,0,0,0,0,0,0,0
 2023-06-24 15:04:58.197,-73290.14072,38305.7491,10736.28047,34972.56756,27902.46491,-52358.42494,22032.74036,-67555.84539,-0.018,0.096,-0.988,192,0,0,0,0,0,0,0,0,0,0
 2023-06-24 15:04:58.197,-73093.37832,36825.79539,9241.127579,33597.82351,26420.45485,-50968.8617,20544.00242,-66643.62599,-0.018,0.096,-0.988,192,0,0,0,0,0,0,0,0,0,0
 2023-06-24 15:04:58.197,-73294.65578,36081.28114,8521.289649,32818.26172,25707.81418,-50566.59735,19810.217,-66410.18437,-0.018,0.096,-0.988,192,0,0,0,0,0,0,0,0,0,0
 2023-06-24 15:04:58.197,-73592.00103,36922.53374,9389.90079,33550.16959,26570.59152,-51598.35387,20671.31796,-67096.38293,-0.018,0.096,-0.988,192,0,0,0,0,0,0,0,0,0,0
 2023-06-24 15:04:58.197,-73595.42085,38229.46259,10692.22518,34825.64954,27868.73613,-52673.33867,21975.13991,-67792.28214,-0.018,0.096,-0.988,192,0,0,0,0,0,0,0,0,0,0
 2023-06-24 15:04:58.197,-73298.94731,38292.87449,10725.99867,34980.56948,27905.59416,-52360.88364,22018.47995,-67577.1913,-0.018,0.096,-0.988,192,0,0,0,0,0,0,0,0,0,0
 2023-06-24 15:04:58.197,-73101.69317,36816.43001,9229.683486,33602.27151,26417.66088,-50978.78587,20535.75463,-66669.91164,-0.014,0.104,-0.992,192,255,144,3,64,225,0,0,0,0,0
 2023-06-24 15:04:58.197,-73306.36809,36017.73513,8456.626052,32747.78667,25639.5296,-50567.13379,19765.78173,-66430.52446,-0.014,0.104,-0.992,192,0,0,0,0,0,0,0,0,0,0
 2023-06-24 15:04:58.197,-73605.92617,36865.20152,9333.328525,33472.05025,26500.80937,-51588.92144,20627.7097,-67110.12925,-0.014,0.104,-0.992,192,0,0,0,0,0,0,0,0,0,0
 2023-06-24 15:04:58.197,-73606.79789,38227.49564,10694.92974,34795.20646,27851.41353,-52661.73812,21984.34883,-67806.00611,-0.014,0.104,-0.992,192,0,0,0,0,0,0,0,0,0,0
 2023-06-24 15:04:58.197,-73311.06196,38306.26319,10746.07053,34972.96989,27907.49406,-52357.55323,22035.8249,-67596.50321,-0.014,0.104,-0.992,192,0,0,0,0,0,0,0,0,0,0
 2023-06-24 15:04:58.197,-73122.14501,36773.78288,9189.852678,33561.8372,26366.07306,-50987.72657,20483.85387,-66698.81245,-0.014,0.104,-0.992,192,0,0,0,0,0,0,0,0,0,0
 2023-06-24 15:04:58.197,-73323.71304,35983.58166,8423.478415,32726.39605,25605.24203,-50564.36218,19709.90237,-66452.27271,-0.014,0.104,-0.992,192,0,0,0,0,0,0,0,0,0,0
 2023-06-24 15:04:58.197,-73622.55587,36839.87699,9311.870851,33463.37777,26482.19037,-51576.73974,20590.15877,-67124.30026,-0.014,0.104,-0.992,192,0,0,0,0,0,0,0,0,0,0
 2023-06-24 15:04:58.197,-73629.86489,38190.83878,10659.41282,34774.12877,27822.848,-52661.00051,21938.48305,-67825.07215,-0.014,0.104,-0.992,192,0,0,0,0,0,0,0,0,0,0
 2023-06-24 15:04:58.197,-73337.34761,38272.69087,10713.92872,34942.9962,27876.29102,-52372.6183,21992.52957,-67623.8841,-0.014,0.104,-0.992,192,0,0,0,0,0,0,0,0,0,0
 2023-06-24 15:04:58.198,-73135.60076,36823.18024,9241.798132,33603.50086,26417.95145,-50996.57786,20536.17931,-66717.47616,-0.02,0.1,-0.992,192,255,96,3,32,225,0,0,0,0,0
 2023-06-24 15:04:58.198,-73327.95987,36046.39006,8485.012768,32771.8595,25666.82108,-50557.25432,19790.77098,-66458.48649,-0.02,0.1,-0.992,192,0,0,0,0,0,0,0,0,0,0
 2023-06-24 15:04:58.198,-73625.21572,36893.16355,9364.732726,33497.26301,26533.06294,-51560.80294,20643.98177,-67125.82017,-0.02,0.1,-0.992,192,0,0,0,0,0,0,0,0,0,0
 2023-06-24 15:04:58.198,-73628.72495,38290.70637,10769.58457,34851.59991,27922.60384,-52642.35915,22037.74715,-67824.62511,-0.02,0.1,-0.992,192,0,0,0,0,0,0,0,0,0,0
 2023-06-24 15:04:58.198,-73342.55556,38356.75578,10802.77691,35027.77636,27970.63774,-52368.19266,22080.55074,-67633.24948,-0.02,0.1,-0.992,192,0,0,0,0,0,0,0,0,0,0
 2023-06-24 15:04:58.198,-73147.20132,36866.52027,9286.523972,33667.85153,26475.41779,-50999.68475,20575.92071,-66734.48583,-0.02,0.1,-0.992,192,0,0,0,0,0,0,0,0,0,0
 2023-06-24 15:04:58.198,-73352.12211,35995.87512,8438.185863,32743.78571,25625.22449,-50556.82964,19739.74195,-66476.23378,-0.02,0.1,-0.992,192,0,0,0,0,0,0,0,0,0,0
 2023-06-24 15:04:58.198,-73658.8104,36791.73133,9266.139181,33415.61209,26439.85616,-51557.65135,20552.78665,-67141.60051,-0.02,0.1,-0.992,192,0,0,0,0,0,0,0,0,0,0
 2023-06-24 15:04:58.198,-73667.237,38187.19544,10659.47988,34769.79253,27828.72651,-52648.34942,21936.13612,-67845.38988,-0.02,0.1,-0.992,192,0,0,0,0,0,0,0,0,0,0
 2023-06-24 15:04:58.198,-73381.15703,38275.26132,10716.94621,34952.6298,27892.42898,-52382.63188,22001.20205,-67659.11045,-0.02,0.1,-0.992,192,0,0,0,0,0,0,0,0,0,0
 2023-06-24 15:04:58.198,-73184.7299,36795.06174,9217.658248,33577.19285,26396.47143,-51016.80619,20519.92959,-66761.28557,-0.022,0.094,-0.988,192,255,80,2,240,225,32,0,0,0,0
 2023-06-24 15:04:58.198,-73378.54187,35979.35718,8423.657229,32717.05302,25607.11957,-50555.60029,19728.27551,-66487.74493,-0.022,0.094,-0.988,192,0,0,0,0,0,0,0,0,0,0
 2023-06-24 15:04:58.198,-73671.52854,36835.74192,9305.433548,33460.00266,26489.92407,-51536.97598,20615.70682,-67137.97952,-0.022,0.094,-0.988,192,0,0,0,0,0,0,0,0,0,0
 2023-06-24 15:04:58.198,-73683.97846,38220.87952,10687.91129,34811.34442,27868.42321,-52636.95003,21997.15638,-67849.4132,-0.022,0.094,-0.988,192,0,0,0,0,0,0,0,0,0,0
 2023-06-24 15:04:58.198,-73398.7255,38318.51194,10763.10256,35004.21763,27941.49106,-52386.07405,22059.11542,-67671.87329,-0.022,0.094,-0.988,192,0,0,0,0,0,0,0,0,0,0
 2023-06-24 15:04:58.198,-73205.2935,36814.61952,9242.178111,33601.51155,26420.90189,-51027.60208,20539.9344,-66776.17184,-0.022,0.094,-0.988,192,0,0,0,0,0,0,0,0,0,0
 2023-06-24 15:04:58.198,-73391.37177,36001.61952,8449.831122,32732.60984,25624.03984,-50552.85103,19749.01792,-66494.36104,-0.022,0.094,-0.988,192,0,0,0,0,0,0,0,0,0,0
 2023-06-24 15:04:58.198,-73693.5003,36769.20077,9239.384143,33394.64616,26413.25759,-51535.56782,20530.3455,-67149.31186,-0.022,0.094,-0.988,192,0,0,0,0,0,0,0,0,0,0
 2023-06-24 15:04:58.198,-73710.62174,38146.35881,10619.69377,34728.95589,27788.44867,-52640.01222,21904.68721,-67864.00889,-0.022,0.094,-0.988,192,0,0,0,0,0,0,0,0,0,0
 2023-06-24 15:04:58.198,-73419.2444,38311.00176,10760.42035,34973.93101,27922.51443,-52391.99726,22037.50128,-67688.41358,-0.022,0.094,-0.988,192,0,0,0,0,0,0,0,0,0,0
 2023-06-24 15:04:58.198,-73211.70845,36888.26852,9312.63081,33659.62609,26481.31865,-51026.81977,20601.84873,-66786.87832,-0.014,0.094,-0.988,192,255,144,2,240,225,32,0,0,0,0
 2023-06-24 15:04:58.198,-73406.95094,35995.15986,8437.358849,32731.91693,25613.40041,-50552.02401,19737.99851,-66504.0617,-0.014,0.094,-0.988,192,0,0,0,0,0,0,0,0,0,0
 2023-06-24 15:04:58.198,-73709.30299,36784.44466,9249.420077,33403.20687,26425.32753,-51525.28602,20541.00729,-67150.34004,-0.014,0.094,-0.988,192,0,0,0,0,0,0,0,0,0,0
 2023-06-24 15:04:58.198,-73731.40886,38152.86316,10618.1962,34740.33293,27796.67411,-52637.68764,21904.5084,-67871.45202,-0.014,0.094,-0.988,192,0,0,0,0,0,0,0,0,0,0
 2023-06-24 15:04:58.198,-73446.26766,38299.20003,10739.32031,34972.85813,27912.61261,-52407.10704,22016.35653,-67707.94901,-0.014,0.094,-0.988,192,0,0,0,0,0,0,0,0,0,0
 2023-06-24 15:04:58.198,-73239.15639,36861.96051,9281.204257,33634.99446,26456.39646,-51040.99077,20570.55629,-66805.81025,-0.014,0.094,-0.988,192,0,0,0,0,0,0,0,0,0,0
 2023-06-24 15:04:58.198,-73430.1297,35972.5399,8416.527023,32697.45054,25591.36159,-50547.88894,19720.36299,-66511.99657,-0.014,0.094,-0.988,192,0,0,0,0,0,0,0,0,0,0
 2023-06-24 15:04:58.198,-73726.1562,36803.37659,9272.91176,33422.787,26447.25459,-51507.62814,20553.83719,-67148.26133,-0.014,0.094,-0.988,192,0,0,0,0,0,0,0,0,0,0
 2023-06-24 15:04:58.198,-73745.57987,38208.54136,10677.94242,34786.26576,27847.83725,-52622.17553,21953.05639,-67871.07204,-0.014,0.094,-0.988,192,0,0,0,0,0,0,0,0,0,0
 2023-06-24 15:04:58.198,-73459.54459,38369.13864,10811.06941,35029.4751,27978.5279,-52402.70375,22086.78688,-67717.00146,-0.014,0.094,-0.988,192,0,0,0,0,0,0,0,0,0,0
 2023-06-24 15:04:58.198,-73245.25842,36955.10023,9374.679252,33721.02633,26546.22812,-51037.54861,20668.56869,-66815.80148,-0.014,0.092,-0.988,192,255,144,2,224,225,32,0,0,0,0
 2023-06-24 15:04:58.198,-73423.96062,36080.8788,8519.300344,32821.59213,25696.43714,-50521.82681,19810.64168,-66504.53109,-0.014,0.092,-0.988,192,0,0,0,0,0,0,0,0,0,0
 2023-06-24 15:04:58.199,-73727.18438,36832.29975,9297.185754,33471.37969,26474.72489,-51477.29683,20589.48822,-67139.6559,-0.014,0.092,-0.988,192,0,0,0,0,0,0,0,0,0,0
 2023-06-24 15:04:58.199,-73758.34271,38204.45099,10671.39336,34806.5388,27852.64288,-52610.46322,21959.49369,-67872.30138,-0.014,0.092,-0.988,192,0,0,0,0,0,0,0,0,0,0
 2023-06-24 15:04:58.199,-73478.94591,38380.06865,10825.48628,35058.68883,27999.38208,-52410.90684,22106.16584,-67726.65742,-0.014,0.092,-0.988,192,0,0,0,0,0,0,0,0,0,0
 2023-06-24 15:04:58.199,-73259.29532,37003.20119,9427.898756,33778.42561,26598.88883,-51043.80709,20721.67644,-66821.79175,-0.014,0.092,-0.988,192,0,0,0,0,0,0,0,0,0,0
 2023-06-24 15:04:58.199,-73437.93046,36082.01874,8525.737646,32828.61058,25706.60719,-50517.33411,19830.55709,-66504.28522,-0.014,0.092,-0.988,192,0,0,0,0,0,0,0,0,0,0
 2023-06-24 15:04:58.199,-73751.95012,36765.021,9236.992507,33407.65487,26414.37518,-51474.48051,20526.61276,-67141.33229,-0.014,0.092,-0.988,192,0,0,0,0,0,0,0,0,0,0
 2023-06-24 15:04:58.199,-73790.37276,38129.70676,10604.6734,34726.20663,27772.55658,-52617.54872,21880.30146,-67881.26443,-0.014,0.092,-0.988,192,0,0,0,0,0,0,0,0,0,0
 2023-06-24 15:04:58.199,-73510.8642,38324.25634,10771.21625,35007.27981,27946.83313,-52430.55402,22060.7918,-67744.60587,-0.014,0.092,-0.988,192,0,0,0,0,0,0,0,0,0,0
 2023-06-24 15:04:58.199,-73294.47696,36897.47744,9324.566641,33687.63282,26503.93862,-51071.14328,20626.48036,-66846.84805,-0.014,0.092,-0.988,192,0,0,0,0,0,0,0,0,0,0
 2023-06-24 15:04:58.199,-73462.11504,36031.07912,8479.871867,32779.19087,25658.1039,-50521.84916,19781.15973,-66512.62242,-0.014,0.096,-0.988,192,255,144,3,0,225,32,0,0,0,0
 2023-06-24 15:04:58.199,-73758.90151,36810.03741,9286.792193,33443.37296,26459.39159,-51457.53788,20578.49116,-67132.27983,-0.014,0.096,-0.988,192,0,0,0,0,0,0,0,0,0,0
 2023-06-24 15:04:58.199,-73798.12882,38171.281,10648.05813,34762.3494,27815.96366,-52608.04923,21930.7717,-67876.48116,-0.014,0.096,-0.988,192,0,0,0,0,0,0,0,0,0,0
 2023-06-24 15:04:58.199,-73516.698,38386.97533,10837.64563,35054.35259,28004.12065,-52431.98454,22121.16386,-67745.07526,-0.014,0.096,-0.988,192,0,0,0,0,0,0,0,0,0,0
 2023-06-24 15:04:58.199,-73299.90844,36957.26835,9386.257456,33733.34214,26555.39233,-51073.84784,20680.54923,-66848.97147,-0.014,0.096,-0.988,192,0,0,0,0,0,0,0,0,0,0
 2023-06-24 15:04:58.199,-73480.55523,35982.48642,8426.004163,32721.9257,25599.8329,-50520.77627,19722.01702,-66515.03641,-0.014,0.096,-0.988,192,0,0,0,0,0,0,0,0,0,0
 2023-06-24 15:04:58.199,-73786.99765,36711.48857,9180.129669,33329.84845,26349.55512,-51454.05101,20477.48363,-67133.88915,-0.014,0.096,-0.988,192,0,0,0,0,0,0,0,0,0,0
 2023-06-24 15:04:58.199,-73831.65644,38092.5358,10565.64725,34668.29326,27728.74716,-52612.85485,21849.50076,-67883.72313,-0.014,0.096,-0.988,192,0,0,0,0,0,0,0,0,0,0
 2023-06-24 15:04:58.199,-73550.89617,38326.75973,10770.43393,34984.34692,27940.0382,-52447.27313,22061.01532,-67760.45326,-0.014,0.096,-0.988,192,0,0,0,0,0,0,0,0,0,0
 2023-06-24 15:04:58.199,-73315.06292,37004.60935,9423.830739,33770.46839,26601.68279,-51078.4523,20727.71141,-66854.15707,-0.014,0.096,-0.988,192,0,0,0,0,0,0,0,0,0,0
 2023-06-24 15:04:58.199,-73472.50861,36123.8165,8562.506266,32846.13435,25740.0454,-50500.50324,19877.20518,-66501.37949,-0.012,0.096,-0.992,192,255,160,3,0,225,0,0,0,0,0
 2023-06-24 15:04:58.199,-73775.66532,36837.06067,9303.824223,33461.32141,26483.8891,-51424.61376,20611.48234,-67114.93488,-0.012,0.096,-0.992,192,0,0,0,0,0,0,0,0,0,0
 2023-06-24 15:04:58.199,-73824.8168,38196.91845,10665.64896,34779.89552,27839.63416,-52589.49728,21945.18858,-67868.52394,-0.012,0.096,-0.992,192,0,0,0,0,0,0,0,0,0,0
 2023-06-24 15:04:58.199,-73537.46278,38504.23259,10949.35965,35159.71871,28117.91338,-52428.40826,22212.22487,-67745.09761,-0.012,0.096,-0.992,192,0,0,0,0,0,0,0,0,0,0
 2023-06-24 15:04:58.199,-73312.2466,37102.75586,9521.619621,33873.1523,26696.76712,-51073.69138,20789.69279,-66848.7256,-0.012,0.096,-0.992,192,0,0,0,0,0,0,0,0,0,0
 2023-06-24 15:04:58.199,-73484.10916,36107.0974,8542.635565,32843.18392,25723.08042,-50497.21754,19831.56292,-66496.88679,-0.012,0.096,-0.992,192,0,0,0,0,0,0,0,0,0,0
 2023-06-24 15:04:58.199,-73789.90338,36797.60984,9260.685356,33413.98041,26442.896,-51412.78969,20552.87606,-67104.56367,-0.012,0.096,-0.992,192,0,0,0,0,0,0,0,0,0,0
 2023-06-24 15:04:58.199,-73839.99364,38191.82225,10656.35063,34760.82948,27836.81784,-52577.65085,21938.48305,-67856.05167,-0.012,0.096,-0.992,192,0,0,0,0,0,0,0,0,0,0
 2023-06-24 15:04:58.199,-73556.10413,38502.24328,10941.26832,35149.81689,28118.91921,-52433.14683,22231.58148,-67744.15883,-0.012,0.096,-0.992,192,0,0,0,0,0,0,0,0,0,0
 2023-06-24 15:04:58.199,-73334.39718,37057.02419,9472.289321,33818.79286,26653.42708,-51088.57764,20762.78129,-66855.38642,-0.012,0.096,-0.992,192,0,0,0,0,0,0,0,0,0,0
 2023-06-24 15:04:58.199,-73494.74859,36113.80292,8549.184626,32840.65817,25728.84717,-50489.93087,19833.52987,-66488.25902,-0.014,0.09,-0.988,192,255,144,2,208,225,32,0,0,0,0
 2023-06-24 15:04:58.199,-73798.75467,36812.71962,9277.426812,33426.13976,26448.14866,-51396.8529,20554.99948,-67090.10209,-0.014,0.09,-0.988,192,0,0,0,0,0,0,0,0,0,0
 2023-06-24 15:04:58.199,-73857.13742,38159.65809,10627.0922,34722.22802,27791.19793,-52572.5323,21900.75331,-67849.97199,-0.014,0.09,-0.988,192,0,0,0,0,0,0,0,0,0,0
 2023-06-24 15:04:58.199,-73590.23524,38381.32034,10823.00524,35034.616,27991.49191,-52452.0117,22107.01521,-67756.29583,-0.014,0.09,-0.988,192,0,0,0,0,0,0,0,0,0,0
 2023-06-24 15:04:58.199,-73364.61674,36972.44519,9386.480974,33753.99515,26563.9307,-51108.24717,20671.47442,-66867.07638,-0.014,0.09,-0.988,192,0,0,0,0,0,0,0,0,0,0
 2023-06-24 15:04:58.199,-73527.94093,36012.52717,8446.701878,32753.37461,25626.655,-50494.8259,19735.47277,-66491.12004,-0.014,0.09,-0.988,192,0,0,0,0,0,0,0,0,0,0
 2023-06-24 15:04:58.199,-73833.13165,36711.44387,9176.6875,33329.53552,26346.87291,-51390.39324,20467.42534,-67088.82804,-0.014,0.09,-0.988,192,0,0,0,0,0,0,0,0,0,0
 2023-06-24 15:04:58.200,-73892.90022,38093.89926,10562.04862,34665.00755,27725.61791,-52571.30296,21838.03431,-67852.87772,-0.014,0.09,-0.988,192,0,0,0,0,0,0,0,0,0,0
 2023-06-24 15:04:58.200,-73617.1691,38409.14827,10848.66504,35058.44296,28011.34026,-52456.4597,22115.33005,-67758.55336,-0.014,0.09,-0.988,192,0,0,0,0,0,0,0,0,0,0
 2023-06-24 15:04:58.200,-73387.8402,37017.64041,9437.733524,33773.82115,26606.84605,-51115.91382,20729.14192,-66870.27268,-0.014,0.09,-0.988,192,0,0,0,0,0,0,0,0,0,0
 2023-06-24 15:04:58.200,-73536.85928,36099.47546,8540.690963,32810.43861,25708.52944,-50481.21369,19835.69799,-66479.60889,-0.018,0.094,-0.99,192,255,112,2,240,225,16,0,0,0,0
 2023-06-24 15:04:58.200,-73838.18315,36803.62246,9270.520123,33408.03485,26438.04567,-51366.43217,20549.70211,-67071.86306,-0.018,0.094,-0.99,192,0,0,0,0,0,0,0,0,0,0
 2023-06-24 15:04:58.200,-73887.24522,38247.16517,10713.32523,34809.28806,27881.65544,-52543.18446,21990.31675,-67833.11878,-0.018,0.094,-0.99,192,0,0,0,0,0,0,0,0,0,0
 2023-06-24 15:04:58.200,-73621.41593,38485.70299,10921.867,35130.7732,28097.0592,-52448.83775,22192.64474,-67757.70399,-0.018,0.094,-0.99,192,0,0,0,0,0,0,0,0,0,0
 2023-06-24 15:04:58.200,-73384.6886,37137.57987,9551.950938,33889.1338,26730.5406,-51110.63881,20825.99203,-66873.26781,-0.018,0.094,-0.99,192,0,0,0,0,0,0,0,0,0,0
 2023-06-24 15:04:58.200,-73538.26744,36137.54048,8570.88817,32860.37241,25748.56141,-50473.23411,19853.13235,-66482.40286,-0.018,0.094,-0.99,192,0,0,0,0,0,0,0,0,0,0
 2023-06-24 15:04:58.200,-73853.6729,36750.64883,9212.629105,33357.40815,26386.34609,-51364.01819,20491.87815,-67078.30037,-0.018,0.094,-0.99,192,0,0,0,0,0,0,0,0,0,0
 2023-06-24 15:04:58.200,-73907.98764,38209.50248,10677.04835,34764.91985,27848.01607,-52544.52557,21948.94367,-67841.70185,-0.018,0.094,-0.99,192,0,0,0,0,0,0,0,0,0,0
 2023-06-24 15:04:58.200,-73633.79879,38537.7155,10980.11565,35174.78379,28147.99883,-52450.24591,22253.665,-67764.40951,-0.018,0.094,-0.99,192,0,0,0,0,0,0,0,0,0,0
 2023-06-24 15:04:58.200,-73398.34552,37168.51469,9587.758432,33923.10845,26760.76016,-51118.03724,20866.98513,-66882.65555,-0.018,0.094,-0.99,192,0,0,0,0,0,0,0,0,0,0
 2023-06-24 15:04:58.200,-73551.58908,36149.90099,8589.015435,32866.49679,25757.43505,-50466.59565,19868.73387,-66480.88294,-0.018,0.098,-0.988,192,255,112,3,16,225,32,0,0,0,0
 2023-06-24 15:04:58.200,-73864.44645,36774.38638,9235.539643,33380.16222,26403.8475,-51345.6674,20521.18129,-67068.28678,-0.018,0.098,-0.988,192,0,0,0,0,0,0,0,0,0,0
 2023-06-24 15:04:58.674,-73924.1256,38218.19731,10678.34475,34784.32116,27849.78185,-52534.6908,21962.01944,-67837.18679,-0.018,0.098,-0.988,192,0,0,0,0,0,0,0,0,0,0
 2023-06-24 15:04:58.674,-73663.03488,38491.6262,10927.81257,35140.83149,28103.25064,-52461.6006,22219.44448,-67775.31717,-0.018,0.098,-0.988,192,0,0,0,0,0,0,0,0,0,0
 2023-06-24 15:04:58.674,-73422.59716,37169.11819,9587.244342,33926.10358,26765.27521,-51132.94585,20875.14351,-66895.48545,-0.018,0.098,-0.988,192,0,0,0,0,0,0,0,0,0,0
 2023-06-24 15:04:58.674,-73574.99135,36119.70378,8558.728821,32846.53668,25731.66349,-50474.32935,19837.7767,-66489.01898,-0.018,0.098,-0.988,192,0,0,0,0,0,0,0,0,0,0
 2023-06-24 15:04:58.674,-73885.47944,36747.96662,9213.545527,33366.57236,26385.25085,-51344.08043,20486.93842,-67070.61137,-0.018,0.098,-0.988,192,0,0,0,0,0,0,0,0,0,0
 2023-06-24 15:04:58.674,-73946.41029,38200.51708,10671.19219,34766.48447,27839.50005,-52535.74133,21945.81442,-67841.00894,-0.018,0.098,-0.988,192,0,0,0,0,0,0,0,0,0,0
 2023-06-24 15:04:58.674,-73673.16022,38570.30434,11013.21858,35210.61363,28181.10176,-52462.96405,22301.52009,-67776.05477,-0.018,0.098,-0.988,192,0,0,0,0,0,0,0,0,0,0
 2023-06-24 15:04:58.674,-73430.30851,37223.1647,9638.608651,33981.67002,26815.20901,-51140.14311,20937.25901,-66901.11809,-0.018,0.098,-0.988,192,0,0,0,0,0,0,0,0,0,0
 2023-06-24 15:04:58.674,-73574.09728,36204.43925,8636.49054,32929.64046,25815.23667,-50462.84055,19924.54617,-66480.59237,-0.022,0.1,-0.986,192,255,80,3,32,225,48,0,0,0,0
 2023-06-24 15:04:58.674,-73886.977,36806.93052,9266.63092,33422.54113,26444.37122,-51324.05327,20545.94702,-67057.71441,-0.022,0.1,-0.986,192,0,0,0,0,0,0,0,0,0,0
 2023-06-24 15:04:58.674,-73964.02347,38181.02636,10649.22042,34741.8752,27815.87426,-52531.76272,21911.03511,-67843.64645,-0.022,0.1,-0.986,192,0,0,0,0,0,0,0,0,0,0
 2023-06-24 15:04:58.674,-73702.06102,38500.79042,10946.27511,35131.3767,28107.67628,-52478.47616,22215.8235,-67795.99253,-0.022,0.1,-0.986,192,0,0,0,0,0,0,0,0,0,0
 2023-06-24 15:04:58.674,-73455.36482,37187.37956,9604.186965,33932.22796,26776.51814,-51155.16349,20887.59343,-66923.00045,-0.022,0.1,-0.986,192,0,0,0,0,0,0,0,0,0,0
 2023-06-24 15:04:58.674,-73609.34599,36074.79913,8503.251791,32804.40364,25685.59655,-50472.04947,19799.9799,-66502.7653,-0.022,0.1,-0.986,192,0,0,0,0,0,0,0,0,0,0
 2023-06-24 15:04:58.674,-73925.39965,36669.73551,9123.155072,33293.83979,26307.46678,-51326.10963,20405.04162,-67074.61233,-0.022,0.1,-0.986,192,0,0,0,0,0,0,0,0,0,0
 2023-06-24 15:04:58.674,-73997.8193,38094.36865,10553.51026,34653.67522,27724.00859,-52534.33317,21823.21511,-67856.81163,-0.022,0.1,-0.986,192,0,0,0,0,0,0,0,0,0,0
 2023-06-24 15:04:58.674,-73724.74804,38513.57562,10949.4267,35140.4068,28114.89589,-52483.03592,22226.39587,-67806.11787,-0.022,0.1,-0.986,192,0,0,0,0,0,0,0,0,0,0
 2023-06-24 15:04:58.674,-73471.61454,37228.08209,9638.586299,33975.38918,26812.16917,-51163.99242,20922.95389,-66934.08691,-0.022,0.1,-0.986,192,0,0,0,0,0,0,0,0,0,0
 2023-06-24 15:04:58.674,-73621.55004,36115.18873,8543.149655,32846.44727,25727.75194,-50469.61313,19835.1392,-66505.24634,-0.02,0.098,-0.98,192,255,96,3,16,225,96,0,0,0,0
 2023-06-24 15:04:58.674,-73937.67076,36702.79374,9159.76723,33313.86695,26336.5464,-51314.71024,20440.64795,-67072.62302,-0.02,0.098,-0.98,192,0,0,0,0,0,0,0,0,0,0
 2023-06-24 15:04:58.674,-74012.70557,38133.03717,10595.48683,34685.95114,27762.76651,-52526.24184,21863.85058,-67864.03124,-0.02,0.098,-0.98,192,0,0,0,0,0,0,0,0,0,0
 2023-06-24 15:04:58.674,-73744.52934,38550.34423,10983.78134,35183.38921,28159.2194,-52488.33328,22258.1577,-67838.10322,-0.02,0.098,-0.98,192,0,0,0,0,0,0,0,0,0,0
 2023-06-24 15:04:58.674,-73486.56785,37279.98284,9685.74848,34036.16357,26874.30702,-51171.74848,20968.73027,-66979.32684,-0.02,0.098,-0.98,192,0,0,0,0,0,0,0,0,0,0
 2023-06-24 15:04:58.674,-73620.85713,36221.69479,8642.950194,32951.9475,25832.49221,-50453.49752,19946.09325,-66541.29971,-0.02,0.098,-0.98,192,0,0,0,0,0,0,0,0,0,0
 2023-06-24 15:04:58.674,-73932.52986,36811.46792,9262.182923,33422.07175,26444.1924,-51288.15636,20551.49025,-67105.72596,-0.02,0.098,-0.98,192,0,0,0,0,0,0,0,0,0,0
 2023-06-24 15:04:58.674,-74008.99518,38242.24779,10699.98124,34785.77403,27871.79832,-52505.52177,21977.10687,-67899.90579,-0.02,0.098,-0.98,192,0,0,0,0,0,0,0,0,0,0
 2023-06-24 15:04:58.674,-73754.40881,38598.33343,11030.98822,35222.16949,28205.15224,-52491.97662,22304.73874,-67881.55501,-0.02,0.098,-0.98,192,0,0,0,0,0,0,0,0,0,0
 2023-06-24 15:04:58.674,-73507.15381,37301.75344,9707.049693,34042.89145,26886.66754,-51188.42288,20994.56888,-67024.74559,-0.02,0.098,-0.98,192,0,0,0,0,0,0,0,0,0,0
 2023-06-24 15:04:58.674,-73647.90274,36198.04665,8618.787958,32919.55983,25805.82658,-50464.18166,19914.30907,-66577.30837,-0.02,0.096,-0.988,192,255,96,3,0,225,32,0,0,0,0
 2023-06-24 15:04:58.675,-73956.93796,36798.9733,9246.939033,33415.61209,26433.8659,-51287.59757,20528.3562,-67129.61997,-0.02,0.096,-0.988,192,0,0,0,0,0,0,0,0,0,0
 2023-06-24 15:04:58.675,-74036.55488,38217.66087,10675.23786,34774.70991,27853.76046,-52509.00865,21945.18858,-67925.63265,-0.02,0.096,-0.988,192,0,0,0,0,0,0,0,0,0,0
 2023-06-24 15:04:58.675,-73785.29892,38566.48219,11001.50627,35188.86539,28175.93851,-52505.92411,22278.69895,-67913.96504,-0.02,0.096,-0.988,192,0,0,0,0,0,0,0,0,0,0
 2023-06-24 15:04:58.675,-73527.56095,37324.52987,9732.195405,34061.55515,26914.4284,-51199.17407,21023.24617,-67053.6911,-0.02,0.096,-0.988,192,0,0,0,0,0,0,0,0,0,0
 2023-06-24 15:04:58.675,-73658.87745,36250.95323,8674.242636,32962.56458,25857.74968,-50454.83863,19971.37308,-66592.68637,-0.02,0.096,-0.988,192,0,0,0,0,0,0,0,0,0,0
 2023-06-24 15:04:58.675,-73968.13619,36857.55722,9309.121586,33445.78695,26485.36432,-51265.40229,20609.64949,-67137.44308,-0.02,0.096,-0.988,192,0,0,0,0,0,0,0,0,0,0
 2023-06-24 15:04:58.675,-74051.68701,38275.32837,10729.55259,34831.79627,27912.21028,-52492.93774,22011.17093,-67936.38384,-0.02,0.096,-0.988,192,0,0,0,0,0,0,0,0,0,0
 2023-06-24 15:04:58.675,-73799.55933,38658.68314,11089.99683,35300.5347,28276.20843,-52499.93384,22372.7551,-67927.37608,-0.02,0.096,-0.988,192,0,0,0,0,0,0,0,0,0,0
 2023-06-24 15:04:58.675,-73549.17509,37371.84851,9779.134068,34120.60846,26970.97832,-51205.03023,21076.44332,-67073.02535,-0.02,0.096,-0.988,192,0,0,0,0,0,0,0,0,0,0
 2023-06-24 15:04:58.675,-73675.79772,36301.49052,8727.037457,33022.24374,25916.75829,-50445.42854,20024.50317,-66599.23543,-0.018,0.098,-0.99,192,255,112,3,16,225,16,0,0,0,0
 2023-06-24 15:04:58.675,-73984.65413,36893.65529,9345.82315,33506.18136,26531.2301,-51245.44218,20632.31416,-67137.13016,-0.018,0.098,-0.99,192,0,0,0,0,0,0,0,0,0,0
 2023-06-24 15:04:58.675,-74080.409,38262.34201,10719.11433,34823.99551,27903.40369,-52482.1195,22006.65587,-67944.25165,-0.018,0.098,-0.99,192,0,0,0,0,0,0,0,0,0,0
 2023-06-24 15:04:58.675,-73832.14817,38658.70549,11092.38846,35292.59983,28277.84011,-52501.43141,22378.41009,-67943.46934,-0.018,0.098,-0.99,192,0,0,0,0,0,0,0,0,0,0
 2023-06-24 15:04:58.675,-73581.67453,37388.12058,9797.261333,34144.36837,26984.99286,-51215.24497,21081.85245,-67093.56661,-0.018,0.098,-0.99,192,0,0,0,0,0,0,0,0,0,0
 2023-06-24 15:04:58.675,-73713.39336,36264.27487,8691.095852,32997.56741,25878.35799,-50454.61511,19982.12427,-66618.72615,-0.018,0.098,-0.99,192,0,0,0,0,0,0,0,0,0,0
 2023-06-24 15:04:58.675,-74027.01068,36819.33574,9271.682414,33432.15238,26455.16711,-51251.00777,20572.03151,-67150.63061,-0.018,0.098,-0.99,192,0,0,0,0,0,0,0,0,0,0
 2023-06-24 15:04:58.675,-74120.93271,38238.31388,10697.38843,34793.61949,27875.73223,-52488.13212,21981.3984,-67952.5665,-0.018,0.098,-0.99,192,0,0,0,0,0,0,0,0,0,0
 2023-06-24 15:04:58.675,-73868.51446,38679.24675,11114.6508,35313.00697,28295.36388,-52514.1719,22398.37019,-67953.12529,-0.018,0.098,-0.99,192,0,0,0,0,0,0,0,0,0,0
 2023-06-24 15:04:58.675,-73618.08552,37398.0671,9805.375016,34156.59477,26995.58759,-51235.09332,21096.15756,-67107.87172,-0.018,0.098,-0.99,192,0,0,0,0,0,0,0,0,0,0
 2023-06-24 15:04:58.675,-73748.88793,36248.56159,8675.092003,32979.86483,25860.72247,-50462.99701,19969.47318,-66626.21398,-0.022,0.098,-0.988,192,255,80,3,16,225,32,0,0,0,0
 2023-06-24 15:04:58.675,-74066.61797,36781.87421,9236.836044,33398.02127,26418.44319,-51250.65014,20522.79061,-67155.68211,-0.022,0.098,-0.988,192,0,0,0,0,0,0,0,0,0,0
 2023-06-24 15:04:58.675,-74164.13863,38194.37035,10654.31662,34750.54768,27833.82271,-52488.93678,21935.28675,-67959.0038,-0.022,0.098,-0.988,192,0,0,0,0,0,0,0,0,0,0
 2023-06-24 15:04:58.675,-73913.17325,38675.93869,11105.95597,35301.00409,28291.25116,-52525.23601,22398.70547,-67962.64714,-0.022,0.098,-0.988,192,0,0,0,0,0,0,0,0,0,0
 2023-06-24 15:04:58.675,-73650.11557,37479.98625,9881.862686,34223.40414,27070.37652,-51243.63169,21174.67924,-67111.448,-0.022,0.098,-0.988,192,0,0,0,0,0,0,0,0,0,0
 2023-06-24 15:04:58.675,-73778.52634,36297.31075,8714.989867,33024.9483,25904.44248,-50459.15251,20012.85792,-66620.58134,-0.022,0.098,-0.988,192,0,0,0,0,0,0,0,0,0,0
 2023-06-24 15:04:58.675,-74092.30013,36837.21713,9286.926304,33443.61883,26468.44405,-51232.14289,20575.27251,-67138.11363,-0.022,0.098,-0.988,192,0,0,0,0,0,0,0,0,0,0
 2023-06-24 15:04:58.675,-74188.43498,38267.88524,10721.59537,34811.14326,27899.0451,-52471.86005,22014.16606,-67940.29539,-0.022,0.098,-0.988,192,0,0,0,0,0,0,0,0,0,0
 2023-06-24 15:04:58.675,-73943.19164,38720.3069,11152.91699,35332.83297,28332.64659,-52522.53145,22458.11641,-67957.64034,-0.022,0.098,-0.988,192,0,0,0,0,0,0,0,0,0,0
 2023-06-24 15:04:58.675,-73689.45464,37469.59269,9875.648901,34217.92796,27069.08012,-51254.22642,21177.00382,-67119.33817,-0.022,0.098,-0.988,192,0,0,0,0,0,0,0,0,0,0
 2023-06-24 15:04:58.675,-73814.91498,36298.87537,8720.555451,33045.22133,25921.96625,-50459.97953,20021.88802,-66622.07891,-0.024,0.096,-0.988,192,255,64,3,0,225,32,0,0,0,0
 2023-06-24 15:04:58.675,-74128.71112,36825.19189,9278.477344,33449.94437,26473.85317,-51223.71629,20575.7866,-67135.52083,-0.024,0.096,-0.988,192,0,0,0,0,0,0,0,0,0,0
 2023-06-24 15:04:58.675,-74230.14334,38247.5675,10710.82183,34803.87894,27890.08205,-52467.45675,21985.93581,-67942.73173,-0.024,0.096,-0.988,192,0,0,0,0,0,0,0,0,0,0
 2023-06-24 15:04:58.675,-73988.43157,38690.28851,11129.3359,35313.25284,28309.51253,-52534.40023,22413.61408,-67970.85023,-0.024,0.096,-0.988,192,0,0,0,0,0,0,0,0,0,0
 2023-06-24 15:04:58.675,-73733.62168,37437.27206,9849.475008,34171.52574,27035.39604,-51271.79489,21159.05537,-67135.63259,-0.024,0.096,-0.988,192,0,0,0,0,0,0,0,0,0,0
 2023-06-24 15:04:58.675,-73856.33276,36263.69372,8687.653683,32985.05044,25881.66605,-50464.15931,20008.47697,-66629.85732,-0.024,0.096,-0.988,192,0,0,0,0,0,0,0,0,0,0
 2023-06-24 15:04:58.675,-74169.05602,36798.05688,9248.213082,33432.3759,26448.52864,-51217.63661,20553.68072,-67135.36437,-0.024,0.096,-0.988,192,0,0,0,0,0,0,0,0,0,0
 2023-06-24 15:04:58.675,-74258.70887,38309.57124,10768.42228,34885.3287,27961.76409,-52451.87759,22056.72378,-67935.15449,-0.024,0.096,-0.988,192,0,0,0,0,0,0,0,0,0,0
 2023-06-24 15:04:58.675,-74016.32655,38780.83542,11220.3075,35411.68993,28400.26062,-52526.64417,22499.22127,-67967.67628,-0.024,0.096,-0.988,192,0,0,0,0,0,0,0,0,0,0
 2023-06-24 15:04:58.675,-73756.15224,37552.54001,9970.353242,34290.9064,27143.66789,-51267.61511,21248.5294,-67134.73852,-0.024,0.096,-0.988,192,0,0,0,0,0,0,0,0,0,0
 2023-06-24 15:04:58.675,-73869.31913,36394.0491,8826.167444,33115.47287,26004.86887,-50443.88627,20119.94512,-66615.10517,-0.022,0.096,-0.988,192,255,80,3,0,225,32,0,0,0,0
 2023-06-24 15:04:58.675,-74192.32418,36843.52032,9300.806737,33459.30975,26480.13401,-51195.26251,20597.93718,-67118.51115,-0.022,0.096,-0.988,192,0,0,0,0,0,0,0,0,0,0
 2023-06-24 15:04:58.675,-74290.40364,38310.64413,10773.71964,34864.94391,27948.26364,-52439.00298,22067.2291,-67919.59768,-0.022,0.096,-0.988,192,0,0,0,0,0,0,0,0,0,0
 2023-06-24 15:04:58.675,-74045.74144,38803.25422,11240.64758,35428.94547,28416.08565,-52523.73845,22528.23383,-67955.96396,-0.022,0.096,-0.988,192,0,0,0,0,0,0,0,0,0,0
 2023-06-24 15:04:58.675,-73777.3864,37615.28136,10025.495,34353.87127,27208.06327,-51262.2954,21323.02777,-67119.00289,-0.022,0.096,-0.988,192,0,0,0,0,0,0,0,0,0,0
 2023-06-24 15:04:58.675,-73899.0693,36357.81692,8780.011091,33090.97536,25970.87186,-50434.49854,20086.12693,-66598.45312,-0.022,0.096,-0.988,192,0,0,0,0,0,0,0,0,0,0
 2023-06-24 15:04:58.675,-74217.29108,36855.83614,9308.205164,33458.46039,26486.14663,-51173.13429,20603.68158,-67092.20315,-0.022,0.096,-0.988,192,0,0,0,0,0,0,0,0,0,0
 2023-06-24 15:04:58.675,-74327.39578,38270.83567,10731.94423,34800.7944,27900.74383,-52428.3859,22019.95516,-67903.25855,-0.022,0.096,-0.988,192,0,0,0,0,0,0,0,0,0,0
 2023-06-24 15:04:58.675,-74094.78117,38719.7034,11154.79453,35332.67651,28329.74086,-52533.9979,22445.8006,-67955.49458,-0.022,0.096,-0.988,192,0,0,0,0,0,0,0,0,0,0
 2023-06-24 15:04:58.675,-73830.76237,37522.27575,9927.929631,34268.82288,27110.4085,-51284.24481,21221.81907,-67126.93776,-0.022,0.096,-0.988,192,0,0,0,0,0,0,0,0,0,0
 2023-06-24 15:04:58.675,-73936.64258,36317.40496,8734.815864,33057.80537,25927.59889,-50438.54421,20047.97251,-66592.50755,-0.02,0.09,-0.984,192,255,96,2,208,225,64,0,0,0,0
 2023-06-24 15:04:58.675,-74255.11023,36761.89175,9213.724341,33374.35077,26402.57345,-51169.98269,20529.6079,-67083.64243,-0.02,0.09,-0.984,192,0,0,0,0,0,0,0,0,0,0
 2023-06-24 15:04:58.675,-74363.85147,38214.53163,10675.28256,34764.13754,27863.99756,-52425.92721,21972.03302,-67895.56955,-0.02,0.09,-0.984,192,0,0,0,0,0,0,0,0,0,0
 2023-06-24 15:04:58.675,-74119.63631,38776.05215,11215.97126,35389.80757,28397.51135,-52533.79673,22495.28736,-67946.24096,-0.02,0.09,-0.984,192,0,0,0,0,0,0,0,0,0,0
 2023-06-24 15:04:58.675,-73861.22779,37549.34371,9962.440725,34285.27376,27148.60763,-51296.00183,21253.37973,-67126.1331,-0.02,0.09,-0.984,192,0,0,0,0,0,0,0,0,0,0
 2023-06-24 15:04:58.675,-73963.79995,36371.78676,8793.936228,33107.42624,25987.32275,-50435.45967,20093.52536,-66580.97405,-0.02,0.09,-0.984,192,0,0,0,0,0,0,0,0,0,0
 2023-06-24 15:04:58.675,-74273.8857,36859.77004,9309.009827,33474.39718,26490.46051,-51147.40743,20607.61548,-67058.00498,-0.02,0.09,-0.984,192,0,0,0,0,0,0,0,0,0,0
 2023-06-24 15:04:58.675,-74390.40534,38284.42553,10745.17646,34835.77488,27928.70586,-52408.13522,22062.37877,-67872.4802,-0.02,0.09,-0.984,192,0,0,0,0,0,0,0,0,0,0
 2023-06-24 15:04:58.675,-74157.299,38795.05113,11230.99163,35415.51207,28421.45007,-52537.52947,22532.43596,-67937.81435,-0.02,0.09,-0.984,192,0,0,0,0,0,0,0,0,0,0
 2023-06-24 15:04:58.675,-73887.24522,37643.89159,10054.32875,34378.07821,27240.56271,-51300.7851,21327.83339,-67115.71719,-0.02,0.09,-0.984,192,0,0,0,0,0,0,0,0,0,0
 2023-06-24 15:04:58.675,-73988.7445,36433.00819,8863.53956,33158.92466,26043.96207,-50429.22353,20133.28911,-66564.36671,-0.016,0.098,-0.986,192,255,128,3,16,225,48,0,0,0,0
 2023-06-24 15:04:58.675,-74308.62031,36846.85073,9306.841708,33464.4283,26484.26908,-51139.04788,20580.03343,-67043.05167,-0.016,0.098,-0.986,192,0,0,0,0,0,0,0,0,0,0
 2023-06-24 15:04:58.675,-74426.10108,38288.04651,10755.10064,34833.20443,27928.30353,-52401.49676,22034.79672,-67859.20326,-0.016,0.098,-0.986,192,0,0,0,0,0,0,0,0,0,0
 2023-06-24 15:04:58.675,-74190.26782,38844.26967,11287.09451,35449.7773,28454.82122,-52542.26804,22567.50584,-67932.53934,-0.016,0.098,-0.986,192,0,0,0,0,0,0,0,0,0,0
 2023-06-24 15:04:58.675,-73924.70675,37661.63888,10075.36174,34390.25991,27245.83772,-51318.68885,21356.51068,-67120.52281,-0.016,0.098,-0.986,192,0,0,0,0,0,0,0,0,0,0
 2023-06-24 15:04:58.675,-74029.55878,36386.71772,8813.739874,33116.54575,25990.67551,-50439.7959,20101.39318,-66563.74086,-0.016,0.098,-0.986,192,0,0,0,0,0,0,0,0,0,0
 2023-06-24 15:04:58.675,-74331.70966,36900.45022,9359.927101,33507.47776,26527.00562,-51124.18397,20637.49977,-67021.28107,-0.016,0.098,-0.986,192,0,0,0,0,0,0,0,0,0,0
 2023-06-24 15:04:58.675,-74454.08546,38316.6791,10782.97326,34854.0139,27946.40844,-52392.89133,22057.72961,-67841.63479,-0.016,0.098,-0.986,192,0,0,0,0,0,0,0,0,0,0
 2023-06-24 15:04:58.675,-74227.59524,38842.7274,11281.61833,35452.30305,28459.89507,-52551.52167,22579.46403,-67927.33138,-0.016,0.098,-0.986,192,0,0,0,0,0,0,0,0,0,0
 2023-06-24 15:04:58.675,-73960.55895,37686.3599,10094.62894,34425.01687,27284.84151,-51333.79863,21402.15294,-67119.47228,-0.016,0.098,-0.986,192,0,0,0,0,0,0,0,0,0,0
 2023-06-24 15:04:58.676,-74062.90758,36418.23368,8840.159636,33145.11128,26022.68321,-50444.73564,20129.28815,-66555.42601,-0.018,0.102,-0.986,192,255,112,3,48,225,48,0,0,0,0
 2023-06-24 15:04:58.676,-74378.76008,36841.59807,9296.716368,33436.64508,26466.49944,-51128.4308,20586.26957,-67014.35203,-0.018,0.102,-0.986,192,0,0,0,0,0,0,0,0,0,0
 2023-06-24 15:04:58.676,-74497.71607,38306.64316,10772.17737,34839.41821,27943.14509,-52392.66782,22055.33797,-67830.36951,-0.018,0.102,-0.986,192,0,0,0,0,0,0,0,0,0,0
 2023-06-24 15:04:58.676,-74259.71469,38928.02166,11368.2984,35538.69254,28541.5907,-52551.3205,22640.03726,-67912.60158,-0.018,0.102,-0.986,192,0,0,0,0,0,0,0,0,0,0
 2023-06-24 15:04:58.676,-73988.90096,37767.25087,10175.07287,34506.26546,27356.72472,-51341.01824,21453.98664,-67109.48105,-0.018,0.102,-0.986,192,0,0,0,0,0,0,0,0,0,0
 2023-06-24 15:04:58.676,-74088.47798,36474.09069,8898.631799,33198.26373,26078.20494,-50441.0476,20172.65054,-66539.06453,-0.018,0.102,-0.986,192,0,0,0,0,0,0,0,0,0,0
 2023-06-24 15:04:58.676,-74407.88441,36864.55332,9319.649258,33474.03955,26492.80745,-51116.71848,20588.99648,-66994.95071,-0.018,0.102,-0.986,192,0,0,0,0,0,0,0,0,0,0
 2023-06-24 15:04:58.676,-74544.96766,38247.94748,10705.83739,34792.59131,27879.48732,-52392.3996,21976.2128,-67821.65233,-0.018,0.102,-0.986,192,0,0,0,0,0,0,0,0,0,0
 2023-06-24 15:04:58.676,-74318.23156,38843.12974,11280.38898,35447.34096,28456.51996,-52570.18537,22556.44173,-67920.15647,-0.018,0.102,-0.986,192,0,0,0,0,0,0,0,0,0,0
 2023-06-24 15:04:58.676,-74044.82502,37724.40257,10137.92427,34442.6524,27318.41383,-51364.21935,21424.57174,-67121.93097,-0.018,0.102,-0.986,192,0,0,0,0,0,0,0,0,0,0
 2023-06-24 15:04:58.676,-74134.85785,36457.99744,8882.76206,33178.39303,26064.928,-50446.88141,20172.65054,-66542.08202,-0.016,0.094,-0.986,192,255,128,2,240,225,48,0,0,0,0
 2023-06-24 15:04:58.676,-74457.54998,36813.50193,9262.294681,33441.00367,26448.39453,-51114.14803,20548.2716,-66992.9167,-0.016,0.094,-0.986,192,0,0,0,0,0,0,0,0,0,0
 2023-06-24 15:04:58.676,-74594.67794,38223.13705,10684.62559,34768.11615,27854.2075,-52390.11972,21957.32557,-67817.85253,-0.016,0.094,-0.986,192,0,0,0,0,0,0,0,0,0,0
 2023-06-24 15:04:58.676,-74372.34513,38822.09674,11261.68057,35433.63934,28433.40825,-52584.0658,22540.14731,-67925.78911,-0.016,0.094,-0.986,192,0,0,0,0,0,0,0,0,0,0
 2023-06-24 15:04:58.676,-74094.02121,37744.13916,10154.03988,34477.11879,27334.06005,-51382.70424,21444.39774,-67128.18946,-0.016,0.094,-0.986,192,0,0,0,0,0,0,0,0,0,0
