 Timestamp_formatted, EXG Channel 0, EXG Channel 1, EXG Channel 2, EXG Channel 3, EXG Channel 4, EXG Channel 5, EXG Channel 6, EXG Channel 7, Accel Channel 0, Accel Channel 1, Accel Channel 2, Other, Other.1, Other.2, Other.3, Other.4, Other.5, Other.6, Analog Channel 0, Analog Channel 1, Analog Channel 2, Other.7
 2023-06-24 15:05:56.314,-68251.7446,35055.64899,7635.780589,30909.64626,24500.06002,-58567.24782,17932.4693,-68282.05356,-0.018,0.092,-0.986,192,0,0,0,0,0,0,0,0,0,0
 2023-06-24 15:05:56.314,-68366.76668,33657.83795,6249.659508,29510.69528,23117.13524,-57648.21114,16551.33266,-67691.8334,-0.018,0.092,-0.986,192,0,0,0,0,0,0,0,0,0,0
 2023-06-24 15:05:56.314,-68684.89905,34046.02069,6668.732365,29796.57409,23533.54824,-58315.61188,16961.2413,-68121.7692,-0.018,0.092,-0.986,192,0,0,0,0,0,0,0,0,0,0
 2023-06-24 15:05:56.314,-68791.20395,35523.31454,8158.297319,31220.2014,25027.06945,-59607.29684,18448.99576,-68959.95962,-0.018,0.092,-0.986,192,0,0,0,0,0,0,0,0,0,0
 2023-06-24 15:05:56.314,-68527.9451,36244.29241,8859.091563,31992.72239,25722.96866,-59777.88535,19137.49655,-69072.32184,-0.018,0.092,-0.986,192,0,0,0,0,0,0,0,0,0,0
 2023-06-24 15:05:56.314,-68249.95646,35101.8724,7687.748395,30958.03779,24556.8111,-58560.92227,17976.97162,-68284.22168,-0.022,0.094,-0.984,192,255,80,2,240,225,64,0,0,0,0
 2023-06-24 15:05:56.793,-68353.24387,33754.15161,6350.555283,29611.99339,23229.05043,-57619.71267,16649.07684,-67677.01419,-0.022,0.094,-0.984,192,0,0,0,0,0,0,0,0,0,0
 2023-06-24 15:05:56.793,-68672.82911,34129.90679,6761.916788,29877.53211,23623.78223,-58273.99293,17048.92719,-68098.45633,-0.022,0.094,-0.984,192,0,0,0,0,0,0,0,0,0,0
 2023-06-24 15:05:56.793,-68777.85996,35628.36774,8270.570132,31306.88146,25128.3005,-59566.08022,18564.64369,-68936.60205,-0.022,0.094,-0.984,192,0,0,0,0,0,0,0,0,0,0
 2023-06-24 15:05:56.793,-68523.20653,36305.96087,8923.844567,32052.4239,25789.80038,-59758.21582,19204.48473,-69063.69407,-0.022,0.094,-0.984,192,0,0,0,0,0,0,0,0,0,0
 2023-06-24 15:05:56.793,-68245.77668,35163.45145,7753.060192,31042.57209,24628.33668,-58552.20509,18038.50598,-68281.60653,-0.022,0.094,-0.984,192,0,0,0,0,0,0,0,0,0,0
 2023-06-24 15:05:56.793,-68350.38285,33758.91253,6361.105306,29637.38497,23234.45955,-57602.43477,16655.20122,-67667.20178,-0.022,0.094,-0.984,192,0,0,0,0,0,0,0,0,0,0
 2023-06-24 15:05:56.793,-68663.68725,34144.61424,6775.841925,29909.47275,23642.06596,-58239.97357,17072.6871,-68075.65756,-0.022,0.094,-0.984,192,0,0,0,0,0,0,0,0,0,0
 2023-06-24 15:05:56.793,-68763.42073,35703.60371,8346.454304,31402.81515,25207.85036,-59527.05407,18639.09735,-68908.90824,-0.022,0.094,-0.984,192,0,0,0,0,0,0,0,0,0,0
 2023-06-24 15:05:56.793,-68509.63903,36390.294,9008.06594,32150.4363,25875.16169,-59735.19352,19309.225,-69046.23736,-0.022,0.094,-0.984,192,0,0,0,0,0,0,0,0,0,0
 2023-06-24 15:05:56.793,-68225.88363,35281.64748,7866.562351,31155.4484,24745.59393,-58537.85527,18169.64366,-68270.3636,-0.022,0.092,-0.984,192,255,80,2,224,225,64,0,0,0,0
 2023-06-24 15:05:56.793,-68325.08067,33853.25925,6449.193531,29722.50041,23323.64301,-57572.10345,16759.69562,-67649.27568,-0.022,0.092,-0.984,192,0,0,0,0,0,0,0,0,0,0
 2023-06-24 15:05:56.793,-68642.74366,34195.3974,6822.869995,29965.03919,23686.61299,-58199.11458,17109.00868,-68054.57986,-0.022,0.092,-0.984,192,0,0,0,0,0,0,0,0,0,0
 2023-06-24 15:05:56.793,-68764.33715,35651.12181,8290.641998,31358.24577,25142.56092,-59503.0483,18569.24815,-68899.00641,-0.022,0.092,-0.984,192,0,0,0,0,0,0,0,0,0,0
 2023-06-24 15:05:56.793,-68513.61764,36365.8859,8984.909533,32126.34112,25842.72931,-59726.5881,19282.24644,-69044.24805,-0.022,0.092,-0.984,192,0,0,0,0,0,0,0,0,0,0
 2023-06-24 15:05:56.793,-68225.36954,35281.53572,7871.256217,31146.15007,24732.87579,-58536.80474,18183.16647,-68270.52006,-0.022,0.092,-0.984,192,0,0,0,0,0,0,0,0,0,0
 2023-06-24 15:05:56.793,-68317.41402,33862.84815,6461.174066,29724.44501,23322.27955,-57553.10447,16779.74514,-67634.1212,-0.022,0.092,-0.984,192,0,0,0,0,0,0,0,0,0,0
 2023-06-24 15:05:56.793,-68641.78254,34147.13998,6775.618407,29910.43388,23635.65101,-58171.62194,17084.73469,-68035.93851,-0.022,0.092,-0.984,192,0,0,0,0,0,0,0,0,0,0
 2023-06-24 15:05:56.793,-68753.25069,35699.6251,8346.096676,31392.06396,25194.46167,-59466.68201,18629.15082,-68875.73825,-0.022,0.092,-0.984,192,0,0,0,0,0,0,0,0,0,0
 2023-06-24 15:05:56.793,-68505.61571,36423.28518,9043.694621,32167.58009,25889.04213,-59708.50554,19326.52525,-69034.30152,-0.022,0.092,-0.984,192,0,0,0,0,0,0,0,0,0,0
 2023-06-24 15:05:56.793,-68222.44146,35314.10221,7900.246429,31171.02756,24755.384,-58534.61427,18202.94776,-68273.6046,-0.02,0.094,-0.982,192,255,96,2,240,225,80,0,0,0,0
 2023-06-24 15:05:56.793,-68311.44611,33873.64404,6470.986482,29729.4071,23327.57691,-57536.74299,16778.09111,-67630.9249,-0.02,0.094,-0.982,192,0,0,0,0,0,0,0,0,0,0
 2023-06-24 15:05:56.793,-68641.11199,34104.93989,6732.636003,29869.99957,23585.76191,-58143.6152,17032.87864,-68026.66253,-0.02,0.094,-0.982,192,0,0,0,0,0,0,0,0,0,0
 2023-06-24 15:05:56.793,-68759.24096,35639.02952,8278.147373,31338.26331,25127.5629,-59442.54213,18559.54749,-68869.21154,-0.02,0.094,-0.982,192,0,0,0,0,0,0,0,0,0,0
 2023-06-24 15:05:56.793,-68515.27167,36383.43202,8999.147594,32126.74345,25848.04903,-59699.85541,19295.21046,-69038.77187,-0.02,0.094,-0.982,192,0,0,0,0,0,0,0,0,0,0
 2023-06-24 15:05:56.793,-68237.55124,35255.07125,7842.08719,31108.73325,24694.58725,-58542.21386,18148.90124,-68289.96608,-0.02,0.094,-0.982,192,0,0,0,0,0,0,0,0,0,0
 2023-06-24 15:05:56.793,-68320.92325,33826.88419,6423.846653,29681.93199,23281.66643,-57533.70315,16729.29725,-67639.21739,-0.02,0.094,-0.982,192,0,0,0,0,0,0,0,0,0,0
 2023-06-24 15:05:56.793,-68638.72035,34115.15464,6743.253081,29870.98305,23597.98832,-58121.50933,17035.85142,-68021.47693,-0.02,0.094,-0.982,192,0,0,0,0,0,0,0,0,0,0
 2023-06-24 15:05:56.793,-68761.43143,35632.52516,8275.755736,31324.62875,25128.45697,-59427.16413,18549.73508,-68867.17753,-0.02,0.094,-0.982,192,0,0,0,0,0,0,0,0,0,0
 2023-06-24 15:05:56.793,-68517.39508,36401.11225,9017.54308,32150.83863,25876.34633,-59700.50361,19296.68567,-69044.78449,-0.02,0.094,-0.982,192,0,0,0,0,0,0,0,0,0,0
 2023-06-24 15:05:56.793,-68229.81754,35326.23921,7914.86447,31177.50957,24773.33245,-58547.1536,18211.59789,-68297.43156,-0.02,0.096,-0.982,192,255,96,3,0,225,80,0,0,0,0
 2023-06-24 15:05:56.793,-68301.43253,33904.33298,6502.882421,29757.30208,23359.87519,-57522.37082,16809.31649,-67634.41177,-0.02,0.096,-0.982,192,0,0,0,0,0,0,0,0,0,0
 2023-06-24 15:05:56.793,-68604.63394,34260.28451,6888.897048,30016.29174,23745.50983,-58086.01476,17189.07263,-67998.85696,-0.02,0.096,-0.982,192,0,0,0,0,0,0,0,0,0,0
 2023-06-24 15:05:56.793,-68736.30807,35712.18678,8355.417354,31396.82488,25204.92228,-59397.72688,18636.19162,-68851.86659,-0.02,0.096,-0.982,192,0,0,0,0,0,0,0,0,0,0
 2023-06-24 15:05:56.793,-68513.14825,36362.64489,8983.233152,32097.12739,25830.92759,-59702.78349,19261.34756,-69054.64161,-0.02,0.096,-0.982,192,0,0,0,0,0,0,0,0,0,0
 2023-06-24 15:05:56.793,-68224.05079,35321.92532,7912.159909,31171.04991,24764.95055,-58557.30129,18191.3472,-68314.32948,-0.02,0.096,-0.982,192,0,0,0,0,0,0,0,0,0,0
 2023-06-24 15:05:56.793,-68294.16821,33897.73922,6490.94659,29756.78799,23350.26394,-57516.04527,16785.33307,-67642.10077,-0.02,0.096,-0.982,192,0,0,0,0,0,0,0,0,0,0
 2023-06-24 15:05:56.793,-68611.65239,34148.50344,6766.878875,29903.30367,23622.37407,-58076.22469,17063.12055,-68005.7413,-0.02,0.096,-0.982,192,0,0,0,0,0,0,0,0,0,0
 2023-06-24 15:05:56.793,-68746.45576,35633.86627,8261.316509,31314.86104,25113.21308,-59387.95917,18560.75449,-68853.18534,-0.02,0.096,-0.982,192,0,0,0,0,0,0,0,0,0,0
 2023-06-24 15:05:56.793,-68509.46021,36421.63115,9028.786007,32157.79002,25879.6991,-59693.84279,19310.65551,-69051.13239,-0.02,0.096,-0.982,192,0,0,0,0,0,0,0,0,0,0
 2023-06-24 15:05:56.793,-68219.7369,35373.22257,7951.342517,31217.6086,24802.59088,-58561.16814,18231.6921,-68319.13511,-0.02,0.094,-0.984,192,255,96,2,240,225,64,0,0,0,0
 2023-06-24 15:05:56.793,-68289.69786,33903.79654,6490.320741,29750.30598,23340.65269,-57513.1619,16784.01432,-67641.8102,-0.02,0.094,-0.984,192,0,0,0,0,0,0,0,0,0,0
 2023-06-24 15:05:56.793,-68607.04793,34133.14779,6750.964433,29880.5943,23600.15644,-58061.45019,17044.45684,-67998.47698,-0.02,0.094,-0.984,192,0,0,0,0,0,0,0,0,0,0
 2023-06-24 15:05:56.793,-68747.23807,35600.83039,8236.483721,31284.52972,25079.01491,-59378.43733,18510.41836,-68851.86659,-0.02,0.094,-0.984,192,0,0,0,0,0,0,0,0,0,0
 2023-06-24 15:05:56.793,-68503.33583,36446.75451,9067.163952,32175.80553,25905.91769,-59693.82044,19342.05971,-69054.48515,-0.02,0.094,-0.984,192,0,0,0,0,0,0,0,0,0,0
 2023-06-24 15:05:56.793,-68205.54354,35438.71319,8026.824358,31280.417,24877.62569,-58565.32557,18321.52376,-68323.22548,-0.02,0.094,-0.984,192,0,0,0,0,0,0,0,0,0,0
 2023-06-24 15:05:56.793,-68268.08372,33964.21331,6557.018346,29838.39421,23416.08982,-57500.80138,16853.61765,-67635.61876,-0.02,0.094,-0.984,192,0,0,0,0,0,0,0,0,0,0
 2023-06-24 15:05:56.793,-68592.11696,34098.52494,6725.729314,29877.59917,23582.23034,-58040.68542,17016.20424,-67989.69275,-0.02,0.094,-0.984,192,0,0,0,0,0,0,0,0,0,0
 2023-06-24 15:05:56.793,-68728.57436,35602.48442,8245.31266,31304.46748,25103.53477,-59351.8164,18531.04902,-68838.38848,-0.02,0.094,-0.984,192,0,0,0,0,0,0,0,0,0,0
 2023-06-24 15:05:56.793,-68486.05794,36469.50858,9091.974389,32219.19027,25945.07795,-59680.52115,19374.46974,-69051.9594,-0.02,0.094,-0.984,192,0,0,0,0,0,0,0,0,0,0
 2023-06-24 15:05:56.793,-68188.9362,35447.69859,8040.280108,31317.5656,24900.73739,-58568.3207,18332.83375,-68332.90378,-0.018,0.094,-0.986,192,255,112,2,240,225,48,0,0,0,0
 2023-06-24 15:05:56.793,-68248.12362,33975.52329,6571.770498,29854.06278,23436.09463,-57493.13474,16880.5068,-67637.02692,-0.018,0.094,-0.986,192,0,0,0,0,0,0,0,0,0,0
 2023-06-24 15:05:56.793,-68565.78661,34158.36056,6786.54841,29937.21127,23641.68598,-58015.60676,17077.71624,-67977.64516,-0.018,0.094,-0.986,192,0,0,0,0,0,0,0,0,0,0
 2023-06-24 15:05:56.793,-68717.17497,35579.08214,8221.73157,31284.41796,25079.28313,-59337.42187,18520.85662,-68833.4264,-0.018,0.094,-0.986,192,0,0,0,0,0,0,0,0,0,0
 2023-06-24 15:05:56.793,-68483.30867,36426.12385,9048.522597,32166.17193,25907.21409,-59687.42784,19351.58156,-69060.49777,-0.018,0.094,-0.986,192,0,0,0,0,0,0,0,0,0,0
 2023-06-24 15:05:56.793,-68175.88278,35493.54201,8088.001083,31331.53544,24940.43409,-58575.92029,18378.78893,-68340.57043,-0.018,0.094,-0.986,192,0,0,0,0,0,0,0,0,0,0
 2023-06-24 15:05:56.794,-68235.33842,33971.43292,6569.468268,29835.37672,23431.49017,-57490.22901,16869.55444,-67638.56919,-0.018,0.094,-0.986,192,0,0,0,0,0,0,0,0,0,0
 2023-06-24 15:05:56.794,-68561.27156,34091.86412,6716.878023,29874.40287,23584.66668,-58003.2686,17014.43845,-67973.71125,-0.018,0.094,-0.986,192,0,0,0,0,0,0,0,0,0,0
 2023-06-24 15:05:56.794,-68705.37325,35600.76333,8242.406934,31301.04766,25097.96919,-59313.10318,18530.89255,-68821.22234,-0.018,0.094,-0.986,192,0,0,0,0,0,0,0,0,0,0
 2023-06-24 15:05:56.794,-68474.81501,36473.59895,9094.857764,32216.10573,25942.95453,-59678.53185,19373.73213,-69060.05073,-0.018,0.094,-0.986,192,0,0,0,0,0,0,0,0,0,0
 2023-06-24 15:05:56.794,-68168.73022,35548.57201,8141.041772,31400.80349,24993.92182,-58579.31776,18428.81214,-68349.1982,-0.018,0.094,-0.986,192,0,0,0,0,0,0,0,0,0,0
 2023-06-24 15:05:56.794,-68220.9886,34027.93813,6627.582804,29886.13753,23479.8817,-57480.08132,16917.16366,-67636.33402,-0.016,0.092,-0.984,192,255,128,2,224,225,64,0,0,0,0
 2023-06-24 15:05:56.794,-68536.70699,34170.27404,6796.740806,29930.99748,23653.42065,-57971.75264,17095.46353,-67956.61216,-0.016,0.092,-0.984,192,0,0,0,0,0,0,0,0,0,0
 2023-06-24 15:05:56.794,-68696.52196,35578.90333,8218.155291,31283.09921,25078.83609,-59294.08184,18501.9694,-68812.23694,-0.016,0.092,-0.984,192,0,0,0,0,0,0,0,0,0,0
 2023-06-24 15:05:56.794,-68469.51764,36472.95075,9089.582752,32226.70045,25954.97977,-59676.6543,19381.24232,-69056.98854,-0.016,0.092,-0.984,192,0,0,0,0,0,0,0,0,0,0
 2023-06-24 15:05:56.794,-68163.14228,35557.06567,8139.141874,31420.7636,25011.80321,-58594.00285,18440.21153,-68354.8532,-0.016,0.092,-0.984,192,0,0,0,0,0,0,0,0,0,0
 2023-06-24 15:05:56.794,-68221.41328,33963.94509,6553.442067,29842.35046,23426.59514,-57492.46418,16859.92084,-67643.17365,-0.016,0.092,-0.984,192,0,0,0,0,0,0,0,0,0,0
 2023-06-24 15:05:56.794,-68540.70795,34080.91177,6706.484462,29852.76638,23567.29937,-57974.18898,16998.03227,-67957.7521,-0.016,0.092,-0.984,192,0,0,0,0,0,0,0,0,0,0
 2023-06-24 15:05:56.794,-68696.18669,35551.00835,8192.853116,31241.34615,25047.61071,-59291.77961,18484.40093,-68809.44297,-0.016,0.092,-0.984,192,0,0,0,0,0,0,0,0,0,0
 2023-06-24 15:05:56.794,-68473.13863,36446.37453,9068.639167,32192.79286,25931.15281,-59693.26165,19362.15393,-69070.84663,-0.016,0.092,-0.984,192,0,0,0,0,0,0,0,0,0,0
 2023-06-24 15:05:56.794,-68162.15881,35551.90242,8143.902796,31416.58383,25014.50777,-58619.14857,18444.72658,-68376.0203,-0.016,0.092,-0.984,192,0,0,0,0,0,0,0,0,0,0
 2023-06-24 15:05:56.794,-68205.72236,34004.87113,6602.347684,29890.65258,23475.07608,-57495.10169,16912.93918,-67646.59347,-0.018,0.094,-0.984,192,255,112,2,240,225,64,0,0,0,0
 2023-06-24 15:05:56.794,-68523.34065,34099.39666,6728.679744,29883.92471,23595.79785,-57959.57094,17033.28097,-67949.88429,-0.018,0.094,-0.984,192,0,0,0,0,0,0,0,0,0,0
 2023-06-24 15:05:56.794,-68677.7912,35582.59136,8229.666439,31276.08076,25088.73792,-59271.7301,18538.91683,-68797.79772,-0.018,0.094,-0.984,192,0,0,0,0,0,0,0,0,0,0
 2023-06-24 15:05:56.794,-68447.92586,36551.18186,9177.089831,32296.19203,26041.30221,-59681.37052,19480.84169,-69060.07308,-0.018,0.094,-0.984,192,0,0,0,0,0,0,0,0,0,0
 2023-06-24 15:05:56.794,-68155.65445,35532.43405,8130.335287,31404.0445,25000.29206,-58636.71704,18433.37189,-68386.63738,-0.018,0.094,-0.984,192,0,0,0,0,0,0,0,0,0,0
 2023-06-24 15:05:56.794,-68201.90021,33954.11032,6560.482867,29841.09877,23428.85267,-57504.2212,16870.44851,-67652.15905,-0.018,0.094,-0.984,192,0,0,0,0,0,0,0,0,0,0
 2023-06-24 15:05:56.794,-68514.62346,34072.08283,6710.798348,29852.22994,23570.27216,-57949.24443,17017.36653,-67940.78713,-0.018,0.094,-0.984,192,0,0,0,0,0,0,0,0,0,0
 2023-06-24 15:05:56.794,-68672.06915,35549.91311,8201.480889,31244.98948,25058.22778,-59261.71652,18501.16473,-68787.69473,-0.018,0.094,-0.984,192,0,0,0,0,0,0,0,0,0,0
 2023-06-24 15:05:56.794,-68451.09981,36491.65916,9125.345543,32222.1407,25972.57059,-59689.66302,19417.58626,-69063.78347,-0.018,0.094,-0.984,192,0,0,0,0,0,0,0,0,0,0
 2023-06-24 15:05:56.794,-68138.53301,35634.3133,8238.562434,31479.57104,25087.03918,-58638.66164,18524.99169,-68382.52466,-0.018,0.094,-0.984,192,0,0,0,0,0,0,0,0,0,0
 2023-06-24 15:05:56.794,-68181.69423,34018.30453,6623.023048,29910.72445,23484.06148,-57500.17554,16915.42022,-67642.16782,-0.018,0.1,-0.988,192,255,112,3,32,225,32,0,0,0,0
 2023-06-24 15:05:56.794,-68499.15606,34074.02743,6712.072398,29867.07149,23565.7571,-57939.2085,17006.05655,-67926.2585,-0.018,0.1,-0.988,192,0,0,0,0,0,0,0,0,0,0
 2023-06-24 15:05:56.794,-68668.06819,35500.31459,8157.246787,31205.67277,25004.24832,-59255.83801,18443.27372,-68776.25063,-0.018,0.1,-0.988,192,0,0,0,0,0,0,0,0,0,0
 2023-06-24 15:05:56.794,-68449.24461,36487.47939,9123.780921,32221.42544,25971.63182,-59698.20138,19417.22863,-69058.3073,-0.018,0.1,-0.988,192,0,0,0,0,0,0,0,0,0,0
 2023-06-24 15:05:56.794,-68135.58258,35626.44549,8228.705314,31467.65756,25080.49012,-58660.56635,18532.25601,-68383.68695,-0.018,0.1,-0.988,192,0,0,0,0,0,0,0,0,0,0
 2023-06-24 15:05:56.794,-68171.16656,34027.60285,6631.516711,29897.82749,23488.7777,-57504.80235,16939.09072,-67629.36027,-0.018,0.1,-0.988,192,0,0,0,0,0,0,0,0,0,0
 2023-06-24 15:05:56.794,-68476.37963,34141.17207,6773.897323,29914.12192,23627.62673,-57916.65559,17075.45871,-67892.23914,-0.018,0.1,-0.988,192,0,0,0,0,0,0,0,0,0,0
 2023-06-24 15:05:56.794,-68640.21792,35578.23277,8235.164968,31273.86794,25080.31131,-59227.09366,18530.11024,-68736.35277,-0.018,0.1,-0.988,192,0,0,0,0,0,0,0,0,0,0
 2023-06-24 15:05:56.794,-68430.89383,36502.20919,9138.667183,32244.62655,25988.99913,-59692.50169,19431.51139,-69035.12854,-0.018,0.1,-0.988,192,0,0,0,0,0,0,0,0,0,0
 2023-06-24 15:05:56.794,-68111.53211,35684.51532,8289.055024,31534.154,25137.2412,-58667.83067,18572.77972,-68366.29729,-0.018,0.1,-0.988,192,0,0,0,0,0,0,0,0,0,0
 2023-06-24 15:05:56.794,-68141.05876,34074.20624,6684.088014,29947.8954,23535.15757,-57503.03656,16977.96041,-67603.49931,-0.016,0.102,-0.992,192,255,128,3,48,225,0,0,0,0,0
 2023-06-24 15:05:56.794,-68451.77036,34141.30618,6780.64755,29911.3503,23629.95131,-57907.60313,17073.17884,-67861.5502,-0.016,0.102,-0.992,192,0,0,0,0,0,0,0,0,0,0
 2023-06-24 15:05:56.794,-68617.95558,35594.88482,8249.380678,31284.48502,25093.87882,-59215.04607,18529.10442,-68701.08172,-0.016,0.102,-0.992,192,0,0,0,0,0,0,0,0,0,0
 2023-06-24 15:05:56.794,-68411.51487,36540.02834,9176.754555,32258.90932,26017.63171,-59692.70285,19452.18676,-69006.13833,-0.016,0.102,-0.992,192,0,0,0,0,0,0,0,0,0,0
 2023-06-24 15:05:56.794,-68100.89268,35680.11203,8286.015187,31510.19293,25136.72711,-58686.96376,18571.25981,-68352.41686,-0.016,0.102,-0.992,192,0,0,0,0,0,0,0,0,0,0
 2023-06-24 15:05:56.794,-68121.59039,34079.57066,6683.573924,29948.70006,23543.38301,-57503.59535,16976.90987,-67577.86185,-0.016,0.102,-0.992,192,0,0,0,0,0,0,0,0,0,0
 2023-06-24 15:05:56.794,-68430.06682,34111.69012,6745.66707,29887.36688,23601.83282,-57891.8228,17047.65314,-67824.80393,-0.016,0.102,-0.992,192,0,0,0,0,0,0,0,0,0,0
 2023-06-24 15:05:56.794,-68596.14028,35563.25711,8216.277744,31242.64255,25057.66899,-59199.13163,18507.53498,-68665.34128,-0.016,0.102,-0.992,192,0,0,0,0,0,0,0,0,0,0
 2023-06-24 15:05:56.794,-68385.11746,36584.91064,9221.122768,32309.58072,26065.4868,-59687.00316,19501.24884,-68974.48826,-0.016,0.102,-0.992,192,0,0,0,0,0,0,0,0,0,0
 2023-06-24 15:05:56.794,-68076.50692,35722.06625,8329.288164,31578.83514,25181.96704,-58696.06092,18608.18489,-68329.03693,-0.016,0.102,-0.992,192,0,0,0,0,0,0,0,0,0,0
 2023-06-24 15:05:56.794,-68101.8091,34062.94096,6674.007377,29956.38906,23524.89811,-57509.69738,16959.3414,-67553.02907,-0.018,0.096,-0.99,192,255,112,3,0,225,16,0,0,0,0
 2023-06-24 15:05:56.794,-68411.09018,34092.62408,6736.346392,29890.04909,23585.33723,-57881.76452,17029.25766,-67790.22578,-0.018,0.096,-0.99,192,0,0,0,0,0,0,0,0,0,0
 2023-06-24 15:05:56.794,-68583.17627,35539.20663,8200.452709,31239.3792,25040.27933,-59189.07335,18496.35911,-68628.90793,-0.018,0.096,-0.99,192,0,0,0,0,0,0,0,0,0,0
 2023-06-24 15:05:56.794,-68376.82496,36568.10213,9211.600925,32308.57489,26055.8979,-59691.94289,19508.24493,-68945.76626,-0.018,0.096,-0.99,192,0,0,0,0,0,0,0,0,0,0
 2023-06-24 15:05:56.794,-68059.54195,35766.72504,8383.871124,31625.79615,25229.44215,-58708.95788,18663.28194,-68304.33825,-0.018,0.096,-0.99,192,0,0,0,0,0,0,0,0,0,0
 2023-06-24 15:05:56.794,-68075.6352,34114.50644,6733.530072,30007.4628,23579.8387,-57509.16094,17022.1498,-67517.82507,-0.018,0.096,-0.99,192,0,0,0,0,0,0,0,0,0,0
 2023-06-24 15:05:56.794,-68380.91533,34141.88732,6790.2588,29939.35704,23636.50037,-57864.39721,17081.29252,-67742.75067,-0.018,0.096,-0.99,192,0,0,0,0,0,0,0,0,0,0
 2023-06-24 15:05:56.794,-68556.39888,35582.65842,8251.191169,31287.05547,25088.64851,-59170.72256,18526.53396,-68581.00815,-0.018,0.096,-0.99,192,0,0,0,0,0,0,0,0,0,0
 2023-06-24 15:05:56.794,-68366.25259,36532.51815,9182.945989,32277.37186,26022.41498,-59700.74948,19446.04003,-68919.3018,-0.018,0.096,-0.99,192,0,0,0,0,0,0,0,0,0,0
 2023-06-24 15:05:56.794,-68047.18143,35760.89123,8378.484354,31620.92347,25231.23029,-58730.81788,18661.02441,-68286.12158,-0.018,0.096,-0.99,192,0,0,0,0,0,0,0,0,0,0
 2023-06-24 15:05:56.794,-68051.31651,34157.06416,6776.356015,30047.87475,23633.88522,-57508.69155,17062.47235,-67485.30328,-0.014,0.096,-0.988,192,255,144,3,0,225,32,0,0,0,0
 2023-06-24 15:05:56.794,-68364.28563,34116.42869,6765.91775,29910.07625,23615.26622,-57851.72377,17046.04382,-67704.28332,-0.014,0.096,-0.988,192,0,0,0,0,0,0,0,0,0,0
 2023-06-24 15:05:56.794,-68549.87217,35514.61971,8181.140802,31224.29177,25029.48344,-59163.70412,18469.55937,-68545.24535,-0.014,0.096,-0.988,192,0,0,0,0,0,0,0,0,0,0
 2023-06-24 15:05:56.794,-68356.21665,36531.22175,9182.677768,32274.89081,26033.4344,-59703.34228,19464.81549,-68888.56815,-0.014,0.096,-0.988,192,0,0,0,0,0,0,0,0,0,0
 2023-06-24 15:05:56.794,-68050.26597,35705.79418,8325.868347,31570.85557,25187.53263,-58757.01413,18611.13532,-68273.67166,-0.014,0.096,-0.988,192,0,0,0,0,0,0,0,0,0,0
 2023-06-24 15:05:56.794,-68051.29415,34110.66194,6736.56991,30008.28981,23597.31777,-57526.41648,17020.764,-67465.99137,-0.014,0.096,-0.988,192,0,0,0,0,0,0,0,0,0,0
 2023-06-24 15:05:56.794,-68349.28761,34160.52868,6817.55028,29971.02946,23671.07852,-57840.57025,17100.44796,-67662.57497,-0.014,0.096,-0.988,192,0,0,0,0,0,0,0,0,0,0
 2023-06-24 15:05:56.794,-68535.90233,35562.54185,8237.713067,31288.95537,25085.49691,-59148.7955,18508.74198,-68500.20659,-0.014,0.096,-0.988,192,0,0,0,0,0,0,0,0,0,0
 2023-06-24 15:05:56.794,-68347.74534,36557.06037,9212.852623,32316.77798,26066.47027,-59702.33645,19496.44321,-68851.17368,-0.014,0.096,-0.988,192,0,0,0,0,0,0,0,0,0,0
 2023-06-24 15:05:56.794,-68021.05224,35864.51392,8487.829088,31745.78032,25349.22515,-58750.93445,18774.81714,-68227.91764,-0.014,0.096,-0.988,192,0,0,0,0,0,0,0,0,0,0
 2023-06-24 15:05:57.272,-68025.83552,34174.74439,6796.852564,30101.29542,23665.26707,-57521.11912,17088.26626,-67421.19848,-0.018,0.096,-0.988,192,255,112,3,0,225,32,0,0,0,0
 2023-06-24 15:05:57.272,-68334.33429,34122.10603,6779.686425,29941.23458,23637.10387,-57832.38951,17064.46166,-67615.65865,-0.018,0.096,-0.988,192,0,0,0,0,0,0,0,0,0,0
 2023-06-24 15:05:57.272,-68526.58165,35501.14161,8180.939636,31219.75436,25024.11902,-59139.8101,18467.70417,-68452.84324,-0.018,0.096,-0.988,192,0,0,0,0,0,0,0,0,0,0
 2023-06-24 15:05:57.272,-68335.96597,36567.65509,9230.398742,32317.47089,26072.77347,-59702.35881,19509.54133,-68809.37592,-0.018,0.096,-0.988,192,0,0,0,0,0,0,0,0,0,0
 2023-06-24 15:05:57.272,-68026.3049,35780.53841,8409.285058,31647.25383,25261.5616,-58777.68949,18703.2245,-68206.77289,-0.018,0.096,-0.988,192,0,0,0,0,0,0,0,0,0,0
 2023-06-24 15:05:57.272,-68031.55756,34061.06342,6687.127851,29980.57365,23549.99912,-57542.68855,16996.04297,-67396.16452,-0.018,0.096,-0.988,192,0,0,0,0,0,0,0,0,0,0
 2023-06-24 15:05:57.272,-68345.73368,33959.18416,6618.150368,29781.21844,23473.22088,-57843.31952,16915.77785,-67585.17088,-0.018,0.096,-0.988,192,0,0,0,0,0,0,0,0,0,0
 2023-06-24 15:05:57.272,-68533.57774,35412.13696,8091.890286,31142.03735,24938.17656,-59139.43012,18368.35067,-68414.26413,-0.018,0.096,-0.988,192,0,0,0,0,0,0,0,0,0,0
 2023-06-24 15:05:57.272,-68348.81822,36482.65141,9147.451418,32245.14064,25992.21778,-59717.40153,19402.11885,-68782.50912,-0.018,0.096,-0.988,192,0,0,0,0,0,0,0,0,0,0
 2023-06-24 15:05:57.272,-68036.94433,35739.59002,8374.617502,31607.64654,25219.89795,-58806.83616,18648.19451,-68187.43863,-0.018,0.096,-0.988,192,0,0,0,0,0,0,0,0,0,0
 2023-06-24 15:05:57.272,-68029.30004,34098.34613,6732.367782,30006.1664,23582.23034,-57553.48445,17020.83105,-67362.97218,-0.018,0.096,-0.992,192,255,112,3,0,225,0,0,0,0,0
 2023-06-24 15:05:57.272,-68338.8717,33989.1355,6649.778086,29812.17561,23497.91956,-57833.79767,16927.55722,-67540.22152,-0.018,0.096,-0.992,192,0,0,0,0,0,0,0,0,0,0
 2023-06-24 15:05:57.272,-68530.80613,35403.15156,8086.458813,31137.67876,24923.13384,-59128.43306,18354.31377,-68367.21371,-0.018,0.096,-0.992,192,0,0,0,0,0,0,0,0,0,0
 2023-06-24 15:05:57.272,-68340.7716,36544.074,9214.663114,32300.75178,26044.27499,-59714.02642,19478.53946,-68737.22449,-0.018,0.096,-0.992,192,0,0,0,0,0,0,0,0,0,0
 2023-06-24 15:05:57.272,-68024.76263,35834.33906,8469.590064,31709.57049,25317.17274,-58812.3794,18754.47705,-68149.843,-0.018,0.096,-0.992,192,0,0,0,0,0,0,0,0,0,0
 2023-06-24 15:05:57.273,-68008.66938,34187.57429,6819.919565,30101.87657,23671.92789,-57547.62829,17111.89206,-67319.45334,-0.018,0.096,-0.992,192,0,0,0,0,0,0,0,0,0,0
 2023-06-24 15:05:57.273,-68317.88341,34042.35501,6706.909145,29861.75178,23547.94276,-57813.81521,16992.53374,-67487.22553,-0.018,0.096,-0.992,192,0,0,0,0,0,0,0,0,0,0
 2023-06-24 15:05:57.273,-68516.52336,35427.20204,8111.872746,31162.01981,24948.2125,-59108.31649,18383.16988,-68314.553,-0.018,0.096,-0.992,192,0,0,0,0,0,0,0,0,0,0
 2023-06-24 15:05:57.273,-68341.64331,36486.13828,9151.988822,32254.99776,25990.92138,-59720.17315,19421.319,-68704.92622,-0.018,0.096,-0.992,192,0,0,0,0,0,0,0,0,0,0
 2023-06-24 15:05:57.273,-68029.32239,35786.12635,8422.941974,31658.76498,25260.93575,-58836.45223,18701.90575,-68128.54178,-0.018,0.096,-0.992,192,0,0,0,0,0,0,0,0,0,0
 2023-06-24 15:05:57.273,-68014.36907,34113.14298,6748.706907,30028.29463,23591.23809,-57569.13067,17047.98842,-67295.62638,-0.02,0.092,-0.99,192,255,96,2,224,225,16,0,0,0,0
 2023-06-24 15:05:57.273,-68310.84261,34046.26656,6713.324095,29857.72846,23554.04479,-57807.73554,17014.66197,-67444.46664,-0.02,0.092,-0.99,192,0,0,0,0,0,0,0,0,0,0
 2023-06-24 15:05:57.273,-68503.02291,35477.87344,8164.533456,31202.2306,24995.66525,-59088.89283,18436.67995,-68261.73583,-0.02,0.092,-0.99,192,0,0,0,0,0,0,0,0,0,0
 2023-06-24 15:05:57.273,-68325.28184,36592.51023,9263.769896,32353.65836,26092.30889,-59707.25384,19524.11467,-68655.08183,-0.02,0.092,-0.99,192,0,0,0,0,0,0,0,0,0,0
 2023-06-24 15:05:57.273,-68013.49735,35890.37489,8529.939774,31777.54215,25371.93452,-58837.74863,18802.39919,-68087.50398,-0.02,0.092,-0.99,192,0,0,0,0,0,0,0,0,0,0
 2023-06-24 15:05:57.273,-67991.39148,34216.54215,6853.223664,30148.56936,23699.28643,-57560.81582,17140.65875,-67247.50307,-0.02,0.092,-0.99,192,0,0,0,0,0,0,0,0,0,0
 2023-06-24 15:05:57.273,-68281.94181,34159.70166,6828.882614,29996.82337,23669.49155,-57780.24289,17104.60539,-67385.30158,-0.02,0.092,-0.99,192,0,0,0,0,0,0,0,0,0,0
 2023-06-24 15:05:57.273,-68495.02099,35453.17476,8143.835741,31199.88366,24979.03555,-59070.54205,18416.00459,-68213.47841,-0.02,0.092,-0.99,192,0,0,0,0,0,0,0,0,0,0
 2023-06-24 15:05:57.273,-68331.29446,36515.37436,9190.500878,32290.44763,26029.47814,-59713.17705,19462.66973,-68625.75634,-0.02,0.092,-0.99,192,0,0,0,0,0,0,0,0,0,0
 2023-06-24 15:05:57.273,-68014.14555,35880.33895,8520.574393,31762.72294,25361.60801,-58852.70194,18800.29813,-68066.53804,-0.02,0.092,-0.99,192,0,0,0,0,0,0,0,0,0,0
 2023-06-24 15:05:57.273,-67990.51976,34192.2458,6828.457931,30118.93095,23669.5586,-57569.71181,17126.15247,-67222.67028,-0.02,0.09,-0.988,192,255,96,2,208,225,32,0,0,0,0
 2023-06-24 15:05:57.273,-68291.5307,34035.67183,6699.890697,29861.43885,23535.85047,-57786.45668,17000.69213,-67358.41243,-0.02,0.09,-0.988,192,0,0,0,0,0,0,0,0,0,0
 2023-06-24 15:05:57.273,-68497.7926,35398.10007,8082.256685,31135.53299,24916.11539,-59067.92689,18358.96294,-68177.58151,-0.02,0.09,-0.988,192,0,0,0,0,0,0,0,0,0,0
 2023-06-24 15:05:57.273,-68336.2789,36468.81568,9138.443665,32241.63142,25972.63765,-59727.281,19396.59797,-68598.86719,-0.02,0.09,-0.988,192,0,0,0,0,0,0,0,0,0,0
 2023-06-24 15:05:57.273,-68017.29715,35864.82684,8507.409216,31736.54905,25343.61486,-58878.94289,18783.93665,-68046.37677,-0.02,0.09,-0.988,192,0,0,0,0,0,0,0,0,0,0
 2023-06-24 15:05:57.273,-67989.64804,34179.59472,6819.025495,30102.61418,23661.57903,-57588.08495,17097.54224,-67198.01631,-0.02,0.09,-0.988,192,0,0,0,0,0,0,0,0,0,0
 2023-06-24 15:05:57.273,-68290.41312,33996.01984,6665.111383,29828.7606,23503.06046,-57789.56357,16956.72625,-67323.99074,-0.02,0.09,-0.988,192,0,0,0,0,0,0,0,0,0,0
 2023-06-24 15:05:57.273,-68501.07831,35351.31786,8046.650356,31089.5778,24871.16604,-59065.19998,18320.0262,-68139.20357,-0.02,0.09,-0.988,192,0,0,0,0,0,0,0,0,0,0
 2023-06-24 15:05:57.273,-68337.10591,36483.36667,9167.657395,32236.24465,25979.27612,-59729.8291,19428.56096,-68563.28321,-0.02,0.09,-0.988,192,0,0,0,0,0,0,0,0,0,0
 2023-06-24 15:05:57.273,-68025.99198,35820.81626,8472.786364,31680.87085,25289.59069,-58902.03224,18740.30605,-68025.92492,-0.02,0.09,-0.988,192,0,0,0,0,0,0,0,0,0,0
 2023-06-24 15:05:57.273,-67996.93471,34105.47633,6750.696212,30016.96229,23576.08361,-57607.24039,17026.5978,-67176.8045,-0.018,0.092,-0.994,192,255,112,2,224,224,240,0,0,0,0
 2023-06-24 15:05:57.273,-68290.92721,33955.7867,6627.895728,29782.76071,23458.58049,-57785.49555,16915.48728,-67287.44564,-0.018,0.092,-0.994,192,0,0,0,0,0,0,0,0,0,0
 2023-06-24 15:05:57.273,-68507.73913,35298.05366,7990.748643,31031.48562,24816.04663,-59059.47793,18260.77172,-68101.29501,-0.018,0.092,-0.994,192,0,0,0,0,0,0,0,0,0,0
 2023-06-24 15:05:57.273,-68348.70647,36431.35416,9104.714883,32187.92018,25930.21404,-59741.51906,19372.6816,-68537.57871,-0.018,0.092,-0.994,192,0,0,0,0,0,0,0,0,0,0
 2023-06-24 15:05:57.273,-68020.73932,35896.02988,8537.181739,31752.28468,25366.86067,-58915.30918,18818.62656,-68000.80156,-0.018,0.092,-0.994,192,0,0,0,0,0,0,0,0,0,0
 2023-06-24 15:05:57.273,-67977.26518,34237.57514,6873.586103,30158.15826,23711.89281,-57605.36285,17163.0105,-67140.48292,-0.018,0.092,-0.994,192,0,0,0,0,0,0,0,0,0,0
 2023-06-24 15:05:57.273,-68273.00111,34014.25886,6680.019996,29854.46511,23516.06918,-57771.14573,16961.57658,-67243.34565,-0.018,0.092,-0.994,192,0,0,0,0,0,0,0,0,0,0
 2023-06-24 15:05:57.273,-68490.57299,35325.99334,8014.016809,31067.7178,24842.19817,-59039.8978,18288.55494,-68053.8199,-0.018,0.092,-0.994,192,0,0,0,0,0,0,0,0,0,0
 2023-06-24 15:05:57.273,-68330.98153,36490.02749,9165.466924,32262.64206,26003.14778,-59731.70665,19453.3714,-68496.60796,-0.018,0.092,-0.994,192,0,0,0,0,0,0,0,0,0,0
 2023-06-24 15:05:57.273,-68006.81418,35948.53412,8596.503269,31829.17468,25437.13456,-58921.88059,18898.01996,-67968.95033,-0.018,0.092,-0.994,192,0,0,0,0,0,0,0,0,0,0
 2023-06-24 15:05:57.273,-67964.18941,34252.23789,6892.182755,30190.32242,23737.4632,-57606.39103,17193.90061,-67104.98835,-0.018,0.09,-0.986,192,255,112,2,208,225,48,0,0,0,0
 2023-06-24 15:05:57.273,-68261.13233,33999.77493,6668.911179,29853.05695,23509.72128,-57758.98638,16952.8594,-67200.20678,-0.018,0.09,-0.986,192,0,0,0,0,0,0,0,0,0,0
 2023-06-24 15:05:57.273,-68477.2737,35334.35289,8031.831149,31083.65459,24859.8337,-59020.76471,18294.25464,-68007.21651,-0.018,0.09,-0.986,192,0,0,0,0,0,0,0,0,0,0
 2023-06-24 15:05:57.273,-68319.38098,36521.27522,9208.650495,32286.33491,26032.38386,-59724.35292,19466.8048,-68458.92292,-0.018,0.09,-0.986,192,0,0,0,0,0,0,0,0,0,0
 2023-06-24 15:05:57.273,-67995.23598,35979.06661,8634.389476,31856.62262,25468.78463,-58929.0108,18908.2347,-67943.08936,-0.018,0.09,-0.986,192,0,0,0,0,0,0,0,0,0,0
 2023-06-24 15:05:57.273,-67953.48292,34237.77631,6885.879563,30167.94833,23725.2368,-57613.27536,17168.35256,-67079.79793,-0.018,0.09,-0.986,192,0,0,0,0,0,0,0,0,0,0
 2023-06-24 15:05:57.273,-68243.65327,33996.91391,6675.504944,29835.86846,23505.5415,-57743.7872,16948.09847,-67162.38763,-0.018,0.09,-0.986,192,0,0,0,0,0,0,0,0,0,0
 2023-06-24 15:05:57.273,-68469.00355,35293.29274,7993.4085,31038.05703,24816.8513,-59003.10683,18260.39174,-67968.12331,-0.018,0.09,-0.986,192,0,0,0,0,0,0,0,0,0,0
 2023-06-24 15:05:57.273,-68322.95726,36463.80889,9148.613709,32228.82387,25974.06816,-59728.5327,19414.14409,-68432.68197,-0.018,0.09,-0.986,192,0,0,0,0,0,0,0,0,0,0
 2023-06-24 15:05:57.274,-67998.72285,35960.91699,8611.478938,31829.77817,25443.79538,-58947.33923,18882.48549,-67924.87269,-0.018,0.09,-0.986,192,0,0,0,0,0,0,0,0,0,0
 2023-06-24 15:05:57.274,-67955.94161,34207.73556,6850.496751,30137.32644,23694.10082,-57623.89244,17146.02317,-67056.19449,-0.018,0.092,-0.986,192,255,112,2,224,225,48,0,0,0,0
 2023-06-24 15:05:57.274,-68245.17319,33962.49222,6634.891824,29808.68874,23475.16548,-57736.72405,16922.12575,-67124.94846,-0.018,0.092,-0.986,192,0,0,0,0,0,0,0,0,0,0
 2023-06-24 15:05:57.274,-68467.46128,35269.75635,7964.57475,31010.94437,24790.74446,-58988.42174,18242.15272,-67922.5034,-0.018,0.092,-0.986,192,0,0,0,0,0,0,0,0,0,0
 2023-06-24 15:05:57.274,-68321.72791,36454.13058,9137.460189,32206.91916,25959.1819,-59724.79996,19410.97014,-68392.62764,-0.018,0.092,-0.986,192,0,0,0,0,0,0,0,0,0,0
 2023-06-24 15:05:57.274,-67991.74911,35996.2104,8644.738334,31864.66925,25475.19958,-58957.19635,18915.67784,-67893.78141,-0.018,0.092,-0.986,192,0,0,0,0,0,0,0,0,0,0
 2023-06-24 15:05:57.274,-67936.76382,34264.46429,6901.302266,30193.71989,23742.64881,-57624.54064,17183.97643,-67021.28107,-0.018,0.092,-0.986,192,0,0,0,0,0,0,0,0,0,0
 2023-06-24 15:05:57.274,-68229.90694,33949.23764,6611.176623,29793.26603,23460.25687,-57728.49861,16912.31333,-67086.10113,-0.018,0.092,-0.986,192,0,0,0,0,0,0,0,0,0,0
 2023-06-24 15:05:57.274,-68453.49144,35276.39482,7962.540741,31005.84817,24797.36057,-58975.56948,18245.7737,-67882.18086,-0.018,0.092,-0.986,192,0,0,0,0,0,0,0,0,0,0
 2023-06-24 15:05:57.274,-68306.64048,36507.95359,9184.689425,32246.30293,26011.95437,-59722.27421,19452.38792,-68360.66465,-0.018,0.092,-0.986,192,0,0,0,0,0,0,0,0,0,0
 2023-06-24 15:05:57.274,-67979.85798,36024.95474,8668.297072,31890.19494,25509.88948,-58973.13314,18934.47565,-67874.51421,-0.018,0.092,-0.986,192,0,0,0,0,0,0,0,0,0,0
 2023-06-24 15:05:57.274,-67915.30614,34320.9695,6953.828866,30253.33199,23804.56314,-57628.63101,17239.92285,-66992.11204,-0.016,0.094,-0.986,192,255,128,2,240,225,48,0,0,0,0
 2023-06-24 15:05:57.274,-68193.09362,34051.49687,6716.095712,29892.15015,23557.75518,-57705.40925,17008.20232,-67036.72612,-0.016,0.094,-0.986,192,0,0,0,0,0,0,0,0,0,0
 2023-06-24 15:05:57.274,-68423.00366,35302.07697,7988.692282,31041.00746,24826.88723,-58953.48596,18280.50831,-67832.98467,-0.016,0.094,-0.986,192,0,0,0,0,0,0,0,0,0,0
 2023-06-24 15:05:57.274,-68288.35676,36486.29474,9161.555369,32234.25534,25997.11281,-59720.1508,19437.14403,-68324.94656,-0.016,0.094,-0.986,192,0,0,0,0,0,0,0,0,0,0
 2023-06-24 15:05:57.274,-67966.6928,36003.40766,8648.247558,31859.81892,25482.19567,-58989.02523,18914.13557,-67850.46373,-0.016,0.094,-0.986,192,0,0,0,0,0,0,0,0,0,0
 2023-06-24 15:05:57.274,-67905.67254,34263.19024,6901.928115,30179.48183,23734.02104,-57646.08772,17164.53042,-66969.44737,-0.016,0.094,-0.986,192,0,0,0,0,0,0,0,0,0,0
 2023-06-24 15:05:57.274,-68187.7292,33968.30368,6634.981231,29803.749,23467.61059,-57709.16435,16902.41151,-67005.50073,-0.016,0.094,-0.986,192,0,0,0,0,0,0,0,0,0,0
 2023-06-24 15:05:57.274,-68407.96094,35303.82041,7993.92259,31037.20767,24823.26625,-58943.20416,18254.40148,-67789.21995,-0.016,0.094,-0.986,192,0,0,0,0,0,0,0,0,0,0
 2023-06-24 15:05:57.274,-68273.06816,36507.90888,9185.516439,32267.53709,26018.7493,-59721.33544,19437.9934,-68286.54626,-0.016,0.094,-0.986,192,0,0,0,0,0,0,0,0,0,0
 2023-06-24 15:05:57.274,-67941.70355,36092.61347,8739.37562,31952.28809,25576.1177,-58994.85904,19004.59307,-67813.89628,-0.016,0.094,-0.986,192,0,0,0,0,0,0,0,0,0,0
 2023-06-24 15:05:57.274,-67863.38304,34412.32108,7051.014251,30326.15397,23885.96819,-57637.37054,17332.05674,-66920.80997,-0.016,0.098,-0.982,192,255,128,3,16,225,80,0,0,0,0
 2023-06-24 15:05:57.274,-68146.87021,34053.59793,6719.180252,29887.92567,23556.54818,-57689.4054,17003.46375,-66950.64955,-0.016,0.098,-0.982,192,0,0,0,0,0,0,0,0,0,0
 2023-06-24 15:05:57.274,-68387.5985,35258.44637,7942.938261,30998.42739,24776.41699,-58932.65413,18209.98856,-67745.20937,-0.016,0.098,-0.982,192,0,0,0,0,0,0,0,0,0,0
 2023-06-24 15:05:57.274,-68257.62311,36475.23063,9146.06561,32224.01824,25974.42579,-59726.36458,19411.01484,-68251.52108,-0.016,0.098,-0.982,192,0,0,0,0,0,0,0,0,0,0
 2023-06-24 15:05:57.274,-67936.42854,36003.05003,8644.783037,31856.68967,25479.02173,-59026.64322,18931.23465,-67798.76415,-0.016,0.098,-0.982,192,0,0,0,0,0,0,0,0,0,0
 2023-06-24 15:05:57.274,-67853.9059,34326.22216,6960.780258,30240.12211,23799.51165,-57664.01382,17253.78093,-66903.48737,-0.016,0.098,-0.982,192,0,0,0,0,0,0,0,0,0,0
 2023-06-24 15:05:57.274,-68139.20357,33930.30571,6594.569277,29772.09893,23434.32885,-57701.40829,16869.39798,-66924.56507,-0.016,0.098,-0.982,192,0,0,0,0,0,0,0,0,0,0
 2023-06-24 15:05:57.274,-68378.81427,35149.36985,7837.952118,30891.96603,24668.59218,-58936.23041,18104.2201,-67712.03938,-0.016,0.098,-0.982,192,0,0,0,0,0,0,0,0,0,0
 2023-06-24 15:05:57.274,-68251.47638,36399.8829,9077.222237,32142.99317,25901.93908,-59739.10507,19343.73609,-68223.17907,-0.016,0.098,-0.982,192,0,0,0,0,0,0,0,0,0,0
 2023-06-24 15:05:57.274,-67931.35469,35977.09965,8620.59845,31827.27478,25452.60196,-59052.39243,18884.85478,-67776.56886,-0.016,0.098,-0.982,192,0,0,0,0,0,0,0,0,0,0
 2023-06-24 15:05:57.274,-67853.74944,34269.22521,6905.414987,30181.13585,23734.73629,-57691.99821,17169.33604,-66882.32027,-0.018,0.098,-0.984,192,255,112,3,16,225,64,0,0,0,0
 2023-06-24 15:05:57.274,-68126.61953,33942.71093,6605.812205,29768.18738,23431.87015,-57700.60363,16872.14725,-66882.0297,-0.018,0.098,-0.984,192,0,0,0,0,0,0,0,0,0,0
 2023-06-24 15:05:57.274,-68356.48487,35216.42509,7903.442729,30937.51889,24723.51041,-58919.95834,18173.26464,-67655.51182,-0.018,0.098,-0.984,192,0,0,0,0,0,0,0,0,0,0
 2023-06-24 15:05:57.274,-68231.20335,36448.16267,9123.445645,32184.63447,25945.145,-59737.54045,19388.30547,-68174.92165,-0.018,0.098,-0.984,192,0,0,0,0,0,0,0,0,0,0
 2023-06-24 15:05:57.274,-67901.58217,36071.53577,8715.749826,31910.15505,25541.76307,-59060.17084,18982.12957,-67733.38529,-0.018,0.098,-0.984,192,0,0,0,0,0,0,0,0,0,0
 2023-06-24 15:05:57.274,-67818.76896,34341.399,6978.438136,30243.2737,23805.47956,-57695.59684,17251.59046,-66838.64496,-0.018,0.098,-0.984,192,0,0,0,0,0,0,0,0,0,0
 2023-06-24 15:05:57.274,-68098.47869,33933.25614,6601.900649,29752.74232,23421.58835,-57695.7086,16862.35718,-66836.11922,-0.018,0.098,-0.984,192,0,0,0,0,0,0,0,0,0,0
 2023-06-24 15:05:57.274,-68338.3129,35160.8363,7849.284452,30881.52777,24666.62522,-58912.11288,18109.11514,-67610.69657,-0.018,0.098,-0.984,192,0,0,0,0,0,0,0,0,0,0
 2023-06-24 15:05:57.274,-68212.45023,36477.10818,9151.072401,32202.51586,25976.90683,-59735.34998,19417.49685,-68135.47082,-0.018,0.098,-0.984,192,0,0,0,0,0,0,0,0,0,0
 2023-06-24 15:05:57.274,-67886.003,36111.6348,8753.747791,31943.41444,25587.09241,-59077.0017,19022.92151,-67707.36786,-0.018,0.098,-0.984,192,0,0,0,0,0,0,0,0,0,0
 2023-06-24 15:05:57.275,-67794.09263,34406.17435,7039.816027,30312.83233,23882.41427,-57705.92334,17311.0461,-66805.27381,-0.016,0.096,-0.982,192,255,128,3,0,225,80,0,0,0,0
 2023-06-24 15:05:57.275,-68067.34271,33978.11609,6639.943318,29798.76456,23476.75246,-57686.2091,16912.93918,-66788.77822,-0.016,0.096,-0.982,192,0,0,0,0,0,0,0,0,0,0
 2023-06-24 15:05:57.275,-68306.37226,35190.72058,7871.591493,30911.88144,24703.88558,-58895.28202,18148.74478,-67558.70641,-0.016,0.096,-0.982,192,0,0,0,0,0,0,0,0,0,0
 2023-06-24 15:05:57.275,-68180.95662,36502.4327,9174.206456,32233.04835,26003.99715,-59730.23143,19434.86416,-68091.37083,-0.016,0.096,-0.982,192,0,0,0,0,0,0,0,0,0,0
 2023-06-24 15:05:57.275,-67846.28395,36196.92906,8839.533787,32028.0605,25668.47511,-59078.32045,19098.13513,-67667.11237,-0.016,0.096,-0.982,192,0,0,0,0,0,0,0,0,0,0
 2023-06-24 15:05:57.275,-67750.7973,34481.87971,7116.884842,30383.73207,23952.39758,-57700.73774,17394.23929,-66762.00083,-0.016,0.096,-0.982,192,0,0,0,0,0,0,0,0,0,0
 2023-06-24 15:05:57.275,-68030.48468,33994.56698,6653.019089,29819.50698,23492.53279,-57670.22761,16948.99254,-66739.71614,-0.016,0.096,-0.982,192,0,0,0,0,0,0,0,0,0,0
 2023-06-24 15:05:57.275,-68274.58808,35182.6069,7861.913188,30916.17297,24702.67859,-58876.95359,18151.11406,-67507.25269,-0.016,0.096,-0.982,192,0,0,0,0,0,0,0,0,0,0
 2023-06-24 15:05:57.275,-68160.773,36459.24913,9131.022886,32193.17284,25961.50648,-59729.15855,19388.37253,-68051.80824,-0.016,0.096,-0.982,192,0,0,0,0,0,0,0,0,0,0
 2023-06-24 15:05:57.275,-67832.1353,36151.30915,8796.998417,31975.37744,25619.6589,-59097.83353,19051.33057,-67637.63042,-0.016,0.096,-0.982,192,0,0,0,0,0,0,0,0,0,0
 2023-06-24 15:05:57.275,-67717.76142,34530.67357,7164.874037,30443.76885,23995.67056,-57707.71148,17421.95546,-66720.6054,-0.02,0.098,-0.982,192,255,96,3,16,225,80,0,0,0,0
 2023-06-24 15:05:57.275,-67989.40217,34030.7768,6685.607932,29880.75076,23526.84272,-57655.18488,16957.84384,-66686.13901,-0.02,0.098,-0.982,192,0,0,0,0,0,0,0,0,0,0
 2023-06-24 15:05:57.275,-68238.89235,35181.33285,7857.398135,30921.22447,24697.60474,-58857.68638,18144.83322,-67454.52493,-0.02,0.098,-0.982,192,0,0,0,0,0,0,0,0,0,0
 2023-06-24 15:05:57.275,-68131.84984,36464.30063,9131.559328,32206.09214,25968.59198,-59724.57644,19411.48423,-68010.25635,-0.02,0.098,-0.982,192,0,0,0,0,0,0,0,0,0,0
 2023-06-24 15:05:57.275,-67809.60474,36151.62208,8790.292894,31992.253,25628.19727,-59111.17752,19067.37913,-67610.83068,-0.02,0.098,-0.982,192,0,0,0,0,0,0,0,0,0,0
 2023-06-24 15:05:57.275,-67697.71191,34503.31503,7128.597156,30407.04494,23966.61329,-57720.67549,17413.14887,-66696.66668,-0.02,0.098,-0.982,192,0,0,0,0,0,0,0,0,0,0
 2023-06-24 15:05:57.275,-67968.50329,33999.23849,6651.275653,29826.45837,23484.46381,-57652.32386,16934.44156,-66651.09147,-0.02,0.098,-0.982,192,0,0,0,0,0,0,0,0,0,0
 2023-06-24 15:05:57.275,-68223.42494,35132.42723,7811.554707,30851.91171,24634.9975,-58852.61254,18079.23085,-67417.48809,-0.02,0.098,-0.982,192,0,0,0,0,0,0,0,0,0,0
 2023-06-24 15:05:57.275,-68105.0054,36513.2286,9183.549486,32226.47693,26002.32077,-59720.1508,19443.29076,-67972.68307,-0.02,0.098,-0.982,192,0,0,0,0,0,0,0,0,0,0
 2023-06-24 15:05:57.275,-67771.36091,36276.23305,8917.116692,32091.74062,25739.35249,-59111.82572,19172.1194,-67579.24766,-0.02,0.098,-0.982,192,0,0,0,0,0,0,0,0,0,0
 2023-06-24 15:05:57.752,-67664.20664,34543.9505,7173.680624,30443.52298,24002.28667,-57724.58705,17418.40153,-66673.2197,-0.028,0.096,-0.984,192,255,32,3,0,225,64,0,0,0,0
 2023-06-24 15:05:57.753,-67937.30026,33999.61847,6656.662423,29833.83445,23487.86127,-57641.43856,16911.84395,-66620.46958,-0.028,0.096,-0.984,192,0,0,0,0,0,0,0,0,0,0
 2023-06-24 15:05:57.753,-68187.0363,35172.12393,7855.587644,30900.70556,24680.10332,-58828.60676,18111.79735,-67376.51734,-0.028,0.096,-0.984,192,0,0,0,0,0,0,0,0,0,0
 2023-06-24 15:05:57.753,-68079.4797,36515.10614,9187.863372,32236.69168,26011.12735,-59716.17218,19443.15665,-67944.20695,-0.028,0.096,-0.984,192,0,0,0,0,0,0,0,0,0,0
 2023-06-24 15:05:57.753,-67753.3454,36254.10482,8895.234334,32072.69693,25721.44875,-59131.71877,19139.08352,-67565.23312,-0.028,0.096,-0.984,192,0,0,0,0,0,0,0,0,0,0
 2023-06-24 15:05:57.753,-67635.39525,34574.30417,7202.492023,30466.00884,24031.5004,-57738.51219,17456.04187,-66651.58321,-0.028,0.096,-0.984,192,0,0,0,0,0,0,0,0,0,0
 2023-06-24 15:05:57.753,-67898.00589,34042.15384,6696.694398,29859.69542,23524.60754,-57632.22964,16956.97212,-66583.92448,-0.028,0.096,-0.984,192,0,0,0,0,0,0,0,0,0,0
 2023-06-24 15:05:57.753,-68152.50285,35164.85961,7847.161036,30878.89026,24668.2122,-58815.12866,18102.2755,-67338.92171,-0.028,0.096,-0.984,192,0,0,0,0,0,0,0,0,0,0
 2023-06-24 15:05:57.753,-68046.7791,36536.9438,9205.029512,32255.73537,26031.55685,-59709.48901,19462.20034,-67911.30518,-0.028,0.096,-0.984,192,0,0,0,0,0,0,0,0,0,0
 2023-06-24 15:05:57.753,-67726.09862,36268.81227,8905.471433,32092.7241,25736.75969,-59142.06763,19174.93572,-67544.15542,-0.028,0.096,-0.984,192,0,0,0,0,0,0,0,0,0,0
 2023-06-24 15:05:57.753,-67606.80736,34608.97173,7233.270375,30504.83382,24068.02315,-57748.61518,17507.85321,-66628.71738,-0.024,0.1,-0.994,192,255,64,3,32,224,240,0,0,0,0
 2023-06-24 15:05:57.753,-67876.23529,34024.25009,6677.203676,29848.40779,23505.60856,-57632.49786,16945.93036,-66552.85556,-0.024,0.1,-0.994,192,0,0,0,0,0,0,0,0,0,0
 2023-06-24 15:05:57.753,-68131.20164,35165.95485,7847.652775,30887.16041,24667.74281,-58803.95279,18105.44945,-67301.14726,-0.024,0.1,-0.994,192,0,0,0,0,0,0,0,0,0,0
 2023-06-24 15:05:57.753,-68031.98225,36520.04588,9192.914867,32254.03664,26017.38584,-59713.55703,19444.36365,-67884.03605,-0.024,0.1,-0.994,192,0,0,0,0,0,0,0,0,0,0
 2023-06-24 15:05:57.753,-67701.89168,36338.52736,8983.635483,32166.90954,25809.40286,-59150.74011,19239.71107,-67516.43926,-0.024,0.1,-0.994,192,0,0,0,0,0,0,0,0,0,0
 2023-06-24 15:05:57.753,-67579.58294,34640.46534,7271.760079,30545.29048,24099.69558,-57755.11953,17538.5198,-66603.14698,-0.024,0.1,-0.994,192,0,0,0,0,0,0,0,0,0,0
 2023-06-24 15:05:57.753,-67840.40545,34078.31896,6734.558253,29921.72151,23571.85913,-57616.85164,17009.25285,-66512.93534,-0.024,0.1,-0.994,192,0,0,0,0,0,0,0,0,0,0
 2023-06-24 15:05:57.753,-68099.05983,35202.05292,7880.64395,30943.66562,24714.56971,-58783.12096,18138.1724,-67254.54387,-0.024,0.1,-0.994,192,0,0,0,0,0,0,0,0,0,0
 2023-06-24 15:05:57.753,-68013.13973,36517.25191,9188.757442,32245.47592,26017.47525,-59710.45014,19441.45792,-67849.12263,-0.024,0.1,-0.994,192,0,0,0,0,0,0,0,0,0,0
 2023-06-24 15:05:57.753,-67686.87131,36340.62843,8982.719062,32155.73366,25811.03454,-59166.14046,19241.05218,-67494.04281,-0.024,0.1,-0.994,192,0,0,0,0,0,0,0,0,0,0
 2023-06-24 15:05:57.753,-67567.06596,34608.34588,7235.170273,30510.53351,24069.38661,-57776.04077,17495.51505,-66582.94101,-0.024,0.1,-0.994,192,0,0,0,0,0,0,0,0,0,0
 2023-06-24 15:05:57.753,-67827.19556,34022.84193,6680.377624,29854.42041,23511.30825,-57622.30547,16935.17917,-66482.55932,-0.022,0.096,-0.988,192,255,80,3,0,225,32,0,0,0,0
 2023-06-24 15:05:57.753,-68085.44762,35141.99378,7827.133873,30874.10699,24653.03536,-58780.34935,18082.18128,-67218.89284,-0.022,0.096,-0.988,192,0,0,0,0,0,0,0,0,0,0
 2023-06-24 15:05:57.753,-67994.87835,36495.3472,9172.127744,32222.52068,25994.58706,-59713.33351,19427.73395,-67817.29374,-0.022,0.096,-0.988,192,0,0,0,0,0,0,0,0,0,0
 2023-06-24 15:05:57.753,-67671.42626,36298.13776,8942.910605,32124.2177,25770.86845,-59188.08987,19200.26025,-67475.69203,-0.022,0.096,-0.988,192,0,0,0,0,0,0,0,0,0,0
 2023-06-24 15:05:57.753,-67545.38477,34585.01066,7215.277221,30483.4432,24046.67724,-57793.8104,17480.53938,-66561.43863,-0.022,0.096,-0.988,192,0,0,0,0,0,0,0,0,0,0
 2023-06-24 15:05:57.753,-67796.2384,34027.28993,6685.138546,29833.40977,23503.61925,-57617.29868,16943.85164,-66445.92481,-0.022,0.096,-0.988,192,0,0,0,0,0,0,0,0,0,0
 2023-06-24 15:05:57.753,-68068.23678,35061.25928,7743.404239,30772.56301,24556.29701,-58777.48832,17983.11835,-67185.47698,-0.022,0.096,-0.988,192,0,0,0,0,0,0,0,0,0,0
 2023-06-24 15:05:57.753,-67987.65874,36401.00049,9074.942359,32116.19343,25888.39393,-59727.14689,19307.14629,-67793.33267,-0.022,0.096,-0.988,192,0,0,0,0,0,0,0,0,0,0
 2023-06-24 15:05:57.753,-67669.70517,36213.87168,8857.459886,32016.05761,25670.44207,-59219.53877,19098.31394,-67462.4598,-0.022,0.096,-0.988,192,0,0,0,0,0,0,0,0,0,0
 2023-06-24 15:05:57.753,-67535.95233,34543.19054,7174.52999,30423.54052,23985.94755,-57822.44299,17413.77472,-66543.40077,-0.022,0.096,-0.988,192,0,0,0,0,0,0,0,0,0,0
 2023-06-24 15:05:57.753,-67787.16359,33951.27165,6606.438053,29767.40506,23425.11993,-57630.03917,16858.11035,-66418.07454,-0.022,0.096,-0.99,192,255,80,3,0,225,16,0,0,0,0
 2023-06-24 15:05:57.753,-68053.8646,35032.0232,7708.088482,30750.09951,24529.05023,-58773.21914,17958.30792,-67146.56259,-0.022,0.096,-0.99,192,0,0,0,0,0,0,0,0,0,0
 2023-06-24 15:05:57.753,-67973.10775,36412.17636,9079.502115,32122.56367,25899.39098,-59728.89033,19333.45429,-67758.91098,-0.022,0.096,-0.99,192,0,0,0,0,0,0,0,0,0,0
 2023-06-24 15:05:57.753,-67651.28734,36271.89681,8916.736712,32072.83104,25732.69167,-59232.34632,19176.23212,-67435.86122,-0.022,0.096,-0.99,192,0,0,0,0,0,0,0,0,0,0
 2023-06-24 15:05:57.753,-67510.22548,34625.95905,7253.051669,30516.41202,24084.18346,-57830.93665,17530.7861,-66515.68461,-0.022,0.096,-0.99,192,0,0,0,0,0,0,0,0,0,0
 2023-06-24 15:05:57.753,-67754.88767,34023.35602,6678.701243,29849.01128,23508.96132,-57617.63395,16951.18302,-66376.20972,-0.022,0.096,-0.99,192,0,0,0,0,0,0,0,0,0,0
 2023-06-24 15:05:57.753,-68019.30881,35104.95694,7790.029978,30820.59691,24604.71089,-58749.63805,18037.14252,-67096.09235,-0.022,0.096,-0.99,192,0,0,0,0,0,0,0,0,0,0
 2023-06-24 15:05:57.753,-67939.31191,36491.34624,9168.9985,32198.09022,25981.80187,-59715.52398,19407.43857,-67715.10157,-0.022,0.096,-0.99,192,0,0,0,0,0,0,0,0,0,0
 2023-06-24 15:05:57.753,-67618.25146,36342.34951,8987.658797,32154.05728,25808.10646,-59235.94495,19232.80439,-67403.87588,-0.022,0.096,-0.99,192,0,0,0,0,0,0,0,0,0,0
 2023-06-24 15:05:57.753,-67480.67647,34644.57806,7273.034128,30543.68115,24097.90744,-57840.19027,17530.7861,-66489.10838,-0.022,0.096,-0.99,192,0,0,0,0,0,0,0,0,0,0
 2023-06-24 15:05:57.753,-67725.65159,34002.18892,6655.321319,29834.81793,23480.46285,-57613.96827,16919.01885,-66343.26325,-0.02,0.096,-0.988,192,255,96,3,0,225,32,0,0,0,0
 2023-06-24 15:05:57.753,-67994.2525,35053.59263,7734.664707,30773.6359,24554.24065,-58741.85964,17994.74126,-67062.31887,-0.02,0.096,-0.988,192,0,0,0,0,0,0,0,0,0,0
 2023-06-24 15:05:57.753,-67927.15257,36402.67687,9073.936531,32117.31101,25892.55135,-59728.75622,19320.93731,-67696.46021,-0.02,0.096,-0.988,192,0,0,0,0,0,0,0,0,0,0
 2023-06-24 15:05:57.753,-67613.17761,36259.17867,8897.916543,32066.4608,25720.12999,-59268.75732,19152.02518,-67399.49493,-0.02,0.096,-0.988,192,0,0,0,0,0,0,0,0,0,0
 2023-06-24 15:05:57.753,-67462.05747,34646.85793,7269.994291,30537.9144,24103.54008,-57868.17466,17528.90855,-66479.20656,-0.02,0.096,-0.988,192,0,0,0,0,0,0,0,0,0,0
 2023-06-24 15:05:57.753,-67693.66624,34027.4911,6681.785784,29851.84996,23507.41905,-57619.42209,16926.73021,-66316.61997,-0.02,0.096,-0.988,192,0,0,0,0,0,0,0,0,0,0
 2023-06-24 15:05:57.754,-67965.32934,35041.07565,7725.433436,30758.97315,24539.89083,-58739.08803,17969.55084,-67031.65228,-0.02,0.096,-0.988,192,0,0,0,0,0,0,0,0,0,0
 2023-06-24 15:05:57.754,-67889.62399,36480.10331,9159.029622,32187.38373,25973.46466,-59724.10705,19411.43953,-67663.82666,-0.02,0.096,-0.988,192,0,0,0,0,0,0,0,0,0,0
 2023-06-24 15:05:57.754,-67567.02126,36407.50485,9059.4526,32207.12032,25873.68648,-59269.80785,19310.36494,-67369.52124,-0.02,0.096,-0.988,192,0,0,0,0,0,0,0,0,0,0
 2023-06-24 15:05:57.754,-67417.86807,34758.28138,7395.655798,30644.8675,24213.51066,-57870.38748,17649.74208,-66454.57494,-0.02,0.096,-0.988,192,0,0,0,0,0,0,0,0,0,0
 2023-06-24 15:05:57.754,-67660.67507,34047.54061,6709.837223,29884.88583,23532.49771,-57613.90121,16960.12371,-66293.41886,-0.024,0.096,-0.99,192,255,64,3,0,225,16,0,0,0,0
 2023-06-24 15:05:57.754,-67934.01455,35053.61498,7739.671497,30793.95363,24561.34851,-58722.63714,17990.0921,-67001.34331,-0.024,0.096,-0.99,192,0,0,0,0,0,0,0,0,0,0
 2023-06-24 15:05:57.754,-67868.94862,36459.69617,9141.997593,32190.04359,25961.21591,-59725.87284,19398.09554,-67644.22418,-0.024,0.096,-0.99,192,0,0,0,0,0,0,0,0,0,0
 2023-06-24 15:05:57.754,-67552.55968,36364.29892,9015.799643,32183.76275,25838.57189,-59293.72421,19273.59632,-67362.65926,-0.024,0.096,-0.99,192,0,0,0,0,0,0,0,0,0,0
 2023-06-24 15:05:57.754,-67400.50076,34726.09487,7356.137914,30637.80435,24190.3766,-57893.78976,17630.02785,-66444.85193,-0.024,0.096,-0.99,192,0,0,0,0,0,0,0,0,0,0
 2023-06-24 15:05:57.754,-67639.48561,34010.57083,6670.341691,29861.72943,23503.75336,-57621.32199,16951.25007,-66271.17887,-0.024,0.096,-0.99,192,0,0,0,0,0,0,0,0,0,0
 2023-06-24 15:05:57.754,-67916.87076,34993.26527,7682.406328,30742.76814,24508.95602,-58723.64297,17949.54603,-66975.6388,-0.024,0.096,-0.99,192,0,0,0,0,0,0,0,0,0,0
 2023-06-24 15:05:57.754,-67861.61725,36381.57682,9066.962787,32119.85911,25888.7739,-59741.18379,19314.09768,-67630.79079,-0.024,0.096,-0.99,192,0,0,0,0,0,0,0,0,0,0
 2023-06-24 15:05:57.754,-67539.66272,36360.00739,9020.046475,32185.01445,25840.67295,-59315.00308,19265.46028,-67356.1102,-0.024,0.096,-0.99,192,0,0,0,0,0,0,0,0,0,0
 2023-06-24 15:05:57.754,-67383.7146,34725.35726,7367.671414,30636.73146,24194.51168,-57914.12984,17629.402,-66439.01812,-0.024,0.096,-0.99,192,0,0,0,0,0,0,0,0,0,0
 2023-06-24 15:05:57.754,-67613.51289,34038.3764,6706.59622,29883.2318,23526.39568,-57619.93618,16963.1412,-66248.38009,-0.026,0.096,-0.986,192,255,48,3,0,225,48,0,0,0,0
 2023-06-24 15:05:57.754,-67896.10599,34979.25073,7673.286816,30720.57286,24485.53139,-58714.90344,17920.06408,-66947.60972,-0.026,0.096,-0.986,192,0,0,0,0,0,0,0,0,0,0
 2023-06-24 15:05:57.754,-67840.20428,36402.72157,9089.538048,32125.71527,25899.72626,-59737.13812,19339.31045,-67605.3545,-0.026,0.096,-0.986,192,0,0,0,0,0,0,0,0,0,0
 2023-06-24 15:05:57.754,-67523.59182,36370.71387,9026.349667,32184.81328,25844.04806,-59330.67165,19286.67209,-67342.58739,-0.026,0.096,-0.986,192,0,0,0,0,0,0,0,0,0,0
 2023-06-24 15:05:57.754,-67369.14127,34704.01135,7341.184597,30604.83552,24164.87326,-57935.47576,17606.40205,-66430.43505,-0.026,0.096,-0.986,192,0,0,0,0,0,0,0,0,0,0
 2023-06-24 15:05:57.754,-67602.2029,33960.21235,6621.234908,29803.39137,23444.96828,-57628.04987,16893.69433,-66234.23144,-0.026,0.096,-0.986,192,0,0,0,0,0,0,0,0,0,0
 2023-06-24 15:05:57.754,-67877.59875,34939.8893,7623.017743,30687.96166,24444.0689,-58708.28732,17885.82121,-66923.73805,-0.026,0.096,-0.986,192,0,0,0,0,0,0,0,0,0,0
 2023-06-24 15:05:57.754,-67830.77184,36331.15129,9006.769539,32058.97296,25829.58649,-59749.67745,19264.3427,-67595.58679,-0.026,0.096,-0.986,192,0,0,0,0,0,0,0,0,0,0
 2023-06-24 15:05:57.754,-67505.93394,36357.79457,9005.651952,32173.77152,25828.64771,-59352.24108,19257.79364,-67339.34639,-0.026,0.096,-0.986,192,0,0,0,0,0,0,0,0,0,0
 2023-06-24 15:05:57.754,-67339.14522,34726.69837,7356.316728,30635.34565,24188.58846,-57949.93734,17636.12987,-66420.86851,-0.026,0.096,-0.986,192,0,0,0,0,0,0,0,0,0,0
 2023-06-24 15:05:57.754,-67568.36236,33962.20165,6618.664458,29804.01722,23451.80791,-57626.93228,16893.3814,-66213.9137,-0.022,0.094,-0.982,192,255,80,2,240,225,80,0,0,0,0
 2023-06-24 15:05:57.754,-67844.38406,34935.15073,7618.078007,30677.00931,24442.52663,-58693.75869,17877.23814,-66895.44074,-0.022,0.094,-0.982,192,0,0,0,0,0,0,0,0,0,0
 2023-06-24 15:05:57.754,-67791.45512,36421.89937,9102.569115,32137.47229,25919.39579,-59732.82423,19343.75845,-67564.09318,-0.022,0.094,-0.982,192,0,0,0,0,0,0,0,0,0,0
 2023-06-24 15:05:57.754,-67477.97191,36396.10546,9049.103743,32195.34095,25864.27639,-59360.24301,19291.70123,-67325.89064,-0.022,0.094,-0.982,192,0,0,0,0,0,0,0,0,0,0
 2023-06-24 15:05:57.754,-67313.75364,34748.40191,7383.205877,30633.66927,24202.40184,-57963.84012,17635.90635,-66412.59836,-0.022,0.094,-0.982,192,0,0,0,0,0,0,0,0,0,0
 2023-06-24 15:05:57.754,-67538.67925,33988.64376,6642.670231,29824.44672,23469.19757,-57620.94201,16909.49701,-66191.02552,-0.022,0.094,-0.982,192,0,0,0,0,0,0,0,0,0,0
 2023-06-24 15:05:57.754,-67820.6465,34926.12063,7604.890478,30663.66531,24432.26718,-58681.91227,17876.50053,-66866.27172,-0.022,0.094,-0.982,192,0,0,0,0,0,0,0,0,0,0
 2023-06-24 15:05:57.754,-67775.54068,36384.08022,9060.458429,32107.69976,25886.96341,-59733.0701,19315.05881,-67540.86972,-0.022,0.094,-0.982,192,0,0,0,0,0,0,0,0,0,0
 2023-06-24 15:05:57.754,-67460.89518,36406.25315,9056.926853,32214.74227,25881.24137,-59373.13996,19306.96747,-67307.89749,-0.022,0.094,-0.982,192,0,0,0,0,0,0,0,0,0,0
 2023-06-24 15:05:57.754,-67295.87225,34748.49132,7383.205877,30647.88498,24209.82262,-57978.63698,17645.74112,-66396.57216,-0.022,0.094,-0.982,192,0,0,0,0,0,0,0,0,0,0
 2023-06-24 15:05:57.754,-67517.55685,33984.01695,6642.066734,29821.51864,23469.6446,-57617.81277,16917.38718,-66164.5387,-0.018,0.092,-0.984,192,255,112,2,224,225,64,0,0,0,0
 2023-06-24 15:05:57.754,-67799.99349,34924.31014,7607.572688,30657.94327,24433.67534,-58668.72474,17873.57245,-66835.11339,-0.018,0.092,-0.984,192,0,0,0,0,0,0,0,0,0,0
 2023-06-24 15:05:57.754,-67761.86142,36380.99568,9062.6489,32090.42187,25885.17527,-59733.40538,19315.21527,-67519.79202,-0.018,0.092,-0.984,192,0,0,0,0,0,0,0,0,0,0
 2023-06-24 15:05:57.754,-67449.83106,36402.72157,9053.127057,32204.81809,25881.10726,-59392.49657,19299.41258,-67301.14726,-0.018,0.092,-0.984,192,0,0,0,0,0,0,0,0,0,0
 2023-06-24 15:05:57.754,-67276.80621,34790.15497,7417.784025,30687.62638,24253.185,-57997.94888,17683.76144,-66386.71504,-0.018,0.092,-0.984,192,0,0,0,0,0,0,0,0,0,0
 2023-06-24 15:05:57.754,-67500.23425,33972.79638,6626.062885,29811.84033,23457.84288,-57622.79721,16899.0364,-66144.08685,-0.018,0.092,-0.984,192,0,0,0,0,0,0,0,0,0,0
 2023-06-24 15:05:57.754,-67781.39684,34905.06529,7586.427937,30645.20277,24415.34691,-58662.4886,17846.32568,-66805.63144,-0.018,0.092,-0.984,192,0,0,0,0,0,0,0,0,0,0
 2023-06-24 15:05:57.754,-67746.50577,36362.7343,9038.754885,32091.13712,25870.98192,-59736.57933,19296.9986,-67495.22746,-0.018,0.092,-0.984,192,0,0,0,0,0,0,0,0,0,0
 2023-06-24 15:05:57.755,-67422.49488,36485.89241,9130.128816,32300.75178,25968.36847,-59401.16905,19411.79716,-67277.16384,-0.018,0.092,-0.984,192,0,0,0,0,0,0,0,0,0,0
 2023-06-24 15:05:57.755,-67243.07743,34880.56777,7503.078282,30788.49981,24344.53658,-58005.05674,17799.87875,-66362.97749,-0.018,0.092,-0.984,192,0,0,0,0,0,0,0,0,0,0
 2023-06-24 15:05:57.755,-67472.33927,33985.42511,6636.434094,29837.20956,23474.33847,-57621.21023,16907.15008,-66116.95184,-0.018,0.088,-0.986,192,255,112,2,192,225,48,0,0,0,0
 2023-06-24 15:05:57.755,-67759.96152,34878.22084,7559.717603,30617.77718,24386.93784,-58655.51485,17803.07505,-66777.51294,-0.018,0.088,-0.986,192,0,0,0,0,0,0,0,0,0,0
 2023-06-24 15:05:57.755,-67725.02574,36383.56613,9066.001662,32096.30038,25887.70102,-59733.00305,19303.83823,-67470.32761,-0.018,0.088,-0.986,192,0,0,0,0,0,0,0,0,0,0
 2023-06-24 15:05:57.755,-67411.98956,36466.4464,9119.981124,32264.29609,25943.58038,-59421.79971,19366.02078,-67268.75958,-0.018,0.088,-0.986,192,0,0,0,0,0,0,0,0,0,0
 2023-06-24 15:05:57.755,-67228.77231,34871.9847,7502.564192,30768.5397,24337.13816,-58025.41918,17762.88662,-66356.27197,-0.018,0.088,-0.986,192,0,0,0,0,0,0,0,0,0,0
 2023-06-24 15:05:57.755,-67451.12746,33989.15785,6645.151275,29829.60997,23475.59017,-57621.29964,16903.90908,-66097.01408,-0.018,0.088,-0.986,192,0,0,0,0,0,0,0,0,0,0
 2023-06-24 15:05:57.755,-67739.42026,34864.11689,7544.138437,30600.56634,24370.28579,-58647.26706,17807.61246,-66752.0096,-0.018,0.088,-0.986,192,0,0,0,0,0,0,0,0,0,0
 2023-06-24 15:05:57.755,-67719.03547,36317.47202,8999.393463,32027.43465,25819.37174,-59742.79311,19246.68482,-67457.63182,-0.018,0.088,-0.986,192,0,0,0,0,0,0,0,0,0,0
 2023-06-24 15:05:57.755,-67406.51338,36458.95856,9114.996685,32243.15134,25930.83989,-59443.70442,19358.86822,-67262.76931,-0.018,0.088,-0.986,192,0,0,0,0,0,0,0,0,0,0
 2023-06-24 15:05:57.755,-67223.92198,34846.83899,7478.96075,30727.5466,24301.2189,-58051.92835,17731.72828,-66353.18742,-0.018,0.088,-0.986,192,0,0,0,0,0,0,0,0,0,0
 2023-06-24 15:05:57.755,-67439.14693,33971.65644,6627.605155,29803.39137,23450.60092,-57623.4007,16884.9995,-66079.13269,-0.01,0.088,-0.982,192,255,176,2,192,225,80,0,0,0,0
 2023-06-24 15:05:57.755,-67730.68073,34815.77007,7497.244477,30554.90173,24323.593,-58639.3769,17750.66021,-66728.80849,-0.01,0.088,-0.982,192,0,0,0,0,0,0,0,0,0,0
 2023-06-24 15:05:57.755,-67713.35813,36282.44684,8962.893064,31995.56106,25783.05015,-59740.89321,19200.61787,-67438.05169,-0.01,0.088,-0.982,192,0,0,0,0,0,0,0,0,0,0
 2023-06-24 15:05:57.755,-67401.46189,36424.04514,9076.775202,32219.72671,25895.09945,-59458.88125,19319.84208,-67255.72851,-0.01,0.088,-0.982,192,0,0,0,0,0,0,0,0,0,0
 2023-06-24 15:05:57.755,-67212.76846,34829.47169,7461.101706,30724.48441,24283.62808,-58072.71547,17721.7147,-66349.6782,-0.01,0.088,-0.982,192,0,0,0,0,0,0,0,0,0,0
 2023-06-24 15:05:57.755,-67431.97202,33899.50501,6554.202027,29738.54896,23378.82946,-57635.96238,16823.80042,-66070.3261,-0.01,0.088,-0.982,192,0,0,0,0,0,0,0,0,0,0
 2023-06-24 15:05:57.755,-67720.33187,34784.61174,7471.338805,30507.96306,24287.27141,-58636.60528,17726.8109,-66709.38482,-0.01,0.088,-0.982,192,0,0,0,0,0,0,0,0,0,0
 2023-06-24 15:05:57.755,-67691.52048,36353.34657,9040.140693,32034.43075,25841.45526,-59729.44912,19276.45734,-67412.10132,-0.01,0.088,-0.982,192,0,0,0,0,0,0,0,0,0,0
 2023-06-24 15:05:57.755,-67381.30061,36498.05176,9151.273567,32281.50693,25963.65225,-59462.50224,19385.4668,-67238.04828,-0.01,0.088,-0.982,192,0,0,0,0,0,0,0,0,0,0
 2023-06-24 15:05:57.755,-67188.15919,34915.01181,7543.646698,30805.84476,24368.00592,-58077.18582,17791.69801,-66331.23801,-0.01,0.088,-0.982,192,0,0,0,0,0,0,0,0,0,0
 2023-06-24 15:05:57.755,-67389.16843,34050.84867,6704.53986,29892.0831,23523.78053,-57609.36381,16960.5931,-66029.64592,-0.018,0.086,-0.986,192,255,112,2,176,225,48,0,0,0,0
 2023-06-24 15:05:57.755,-67679.78581,34887.63093,7569.306501,30628.12604,24385.93201,-58605.02226,17829.22659,-66666.29066,-0.018,0.086,-0.986,192,0,0,0,0,0,0,0,0,0,0
 2023-06-24 15:05:57.755,-67668.1629,36359.44859,9039.894824,32065.61143,25854.84396,-59722.05069,19300.82074,-67386.93325,-0.018,0.086,-0.986,192,0,0,0,0,0,0,0,0,0,0
 2023-06-24 15:05:57.755,-67360.89347,36530.17122,9181.224904,32335.06171,26005.98645,-59472.56052,19427.64454,-67226.22421,-0.018,0.086,-0.986,192,0,0,0,0,0,0,0,0,0,0
 2023-06-24 15:05:57.755,-67169.87546,34928.9146,7555.515475,30834.72321,24390.2012,-58092.87674,17807.32188,-66325.24774,-0.018,0.086,-0.986,192,0,0,0,0,0,0,0,0,0,0
 2023-06-24 15:05:57.755,-67373.20928,34041.0586,6689.452432,29889.55735,23522.50648,-57609.09559,16954.55813,-66013.9103,-0.018,0.086,-0.986,192,0,0,0,0,0,0,0,0,0,0
 2023-06-24 15:05:57.755,-67671.20274,34833.98674,7508.219183,30580.62858,24340.60268,-58600.59662,17774.95656,-66646.73288,-0.018,0.086,-0.986,192,0,0,0,0,0,0,0,0,0,0
 2023-06-24 15:05:57.755,-67662.73143,36304.12803,8980.483887,32023.97013,25808.37468,-59725.80579,19230.4351,-67370.9294,-0.018,0.086,-0.986,192,0,0,0,0,0,0,0,0,0,0
 2023-06-24 15:05:57.755,-67352.66803,36512.26747,9165.131648,32312.91113,25987.56862,-59487.46914,19406.07511,-67218.37875,-0.018,0.086,-0.986,192,0,0,0,0,0,0,0,0,0,0
 2023-06-24 15:05:57.755,-67155.19037,34929.69691,7562.220998,30828.7106,24393.21868,-58109.99818,17827.48316,-66321.06797,-0.018,0.086,-0.986,192,0,0,0,0,0,0,0,0,0,0
 2023-06-24 15:05:58.233,-67357.02662,34007.97802,6665.089031,29856.18619,23503.32868,-57609.67673,16940.96827,-65998.5323,-0.012,0.094,-0.984,192,255,160,2,240,225,64,0,0,0,0
 2023-06-24 15:05:58.233,-67654.12601,34822.05091,7503.905297,30562.09899,24333.80775,-58587.31968,17770.93324,-66622.03421,-0.012,0.094,-0.984,192,0,0,0,0,0,0,0,0,0,0
 2023-06-24 15:05:58.233,-67648.35926,36317.65083,9001.628638,32023.83602,25822.0316,-59716.70863,19248.54001,-67350.18699,-0.012,0.094,-0.984,192,0,0,0,0,0,0,0,0,0,0
 2023-06-24 15:05:58.233,-67340.21811,36540.69889,9198.34634,32332.87124,26020.33627,-59493.70527,19439.2898,-67206.71114,-0.012,0.094,-0.984,192,0,0,0,0,0,0,0,0,0,0
 2023-06-24 15:05:58.233,-67146.02615,34913.08956,7549.033469,30809.71161,24377.63952,-58128.12544,17798.71646,-66316.93289,-0.012,0.094,-0.984,192,0,0,0,0,0,0,0,0,0,0
 2023-06-24 15:05:58.233,-67332.88674,34039.29282,6699.220145,29886.71868,23528.92143,-57601.60775,16956.56979,-65975.04061,-0.012,0.094,-0.984,192,0,0,0,0,0,0,0,0,0,0
 2023-06-24 15:05:58.233,-67620.50898,34886.46864,7572.972187,30634.89862,24398.87367,-58561.54812,17830.83592,-66586.85256,-0.012,0.094,-0.984,192,0,0,0,0,0,0,0,0,0,0
 2023-06-24 15:05:58.233,-67619.16788,36356.43111,9044.342821,32076.96612,25864.4105,-59699.65425,19294.11522,-67322.06849,-0.012,0.094,-0.984,192,0,0,0,0,0,0,0,0,0,0
 2023-06-24 15:05:58.233,-67316.05587,36588.33046,9246.581405,32386.98481,26071.41001,-59494.21936,19488.73186,-67190.28261,-0.012,0.094,-0.984,192,0,0,0,0,0,0,0,0,0,0
 2023-06-24 15:05:58.233,-67110.19631,35059.00175,7691.883468,30956.29435,24520.80244,-58124.52681,17940.94061,-66295.96696,-0.012,0.094,-0.984,192,0,0,0,0,0,0,0,0,0,0
 2023-06-24 15:05:58.233,-67318.46986,34002.03246,6659.56815,29853.7275,23485.60375,-57602.36771,16927.06548,-65961.36134,-0.012,0.098,-0.988,192,255,160,3,16,225,32,0,0,0,0
 2023-06-24 15:05:58.233,-67613.71405,34808.86338,7493.176459,30550.07375,24314.42878,-58555.71432,17771.31322,-66568.85941,-0.012,0.098,-0.988,192,0,0,0,0,0,0,0,0,0,0
 2023-06-24 15:05:58.233,-67613.95992,36315.9074,8997.158289,32033.46962,25823.90914,-59700.59302,19257.61482,-67307.62926,-0.012,0.098,-0.988,192,0,0,0,0,0,0,0,0,0,0
 2023-06-24 15:05:58.233,-67315.98882,36524.38212,9178.185067,32338.57093,26014.27895,-59515.40882,19426.75047,-67189.63441,-0.012,0.098,-0.988,192,0,0,0,0,0,0,0,0,0,0
 2023-06-24 15:05:58.233,-67109.97279,34978.75899,7612.825348,30883.00298,24447.75694,-58151.57242,17877.79693,-66299.63264,-0.012,0.098,-0.988,192,0,0,0,0,0,0,0,0,0,0
 2023-06-24 15:05:58.233,-67305.30468,33986.69916,6642.223196,29841.94813,23474.33847,-57600.60192,16918.50476,-65944.32931,-0.012,0.098,-0.988,192,0,0,0,0,0,0,0,0,0,0
 2023-06-24 15:05:58.233,-67607.63438,34740.5341,7424.713066,30487.31005,24250.12282,-58548.51705,17691.98688,-66551.13447,-0.012,0.098,-0.988,192,0,0,0,0,0,0,0,0,0,0
 2023-06-24 15:05:58.233,-67616.79859,36230.85901,8916.647305,31951.03639,25740.80536,-59704.07989,19165.70445,-67297.1463,-0.012,0.098,-0.988,192,0,0,0,0,0,0,0,0,0,0
 2023-06-24 15:05:58.233,-67322.7614,36469.01685,9128.139511,32275.82959,25955.06918,-59535.03365,19376.63786,-67189.00856,-0.012,0.098,-0.988,192,0,0,0,0,0,0,0,0,0,0
 2023-06-24 15:05:58.233,-67110.68804,34971.82995,7605.270458,30876.61038,24439.97853,-58175.55585,17868.27509,-66301.0408,-0.012,0.098,-0.988,192,0,0,0,0,0,0,0,0,0,0
 2023-06-24 15:05:58.233,-67297.10159,33986.22978,6641.619699,29839.71296,23475.94779,-57603.41824,16911.55337,-65932.0135,-0.016,0.094,-0.99,192,255,128,2,240,225,16,0,0,0,0
 2023-06-24 15:05:58.233,-67586.40022,34804.32597,7487.186192,30547.25743,24309.71257,-58527.79699,17739.93137,-66520.6914,-0.016,0.094,-0.99,192,0,0,0,0,0,0,0,0,0,0
 2023-06-24 15:05:58.233,-67596.86084,36312.30877,8996.443033,32021.31027,25816.55542,-59687.27138,19245.07549,-67268.55842,-0.016,0.094,-0.99,192,0,0,0,0,0,0,0,0,0,0
 2023-06-24 15:05:58.233,-67303.89652,36569.42088,9226.956573,32356.67585,26050.73465,-59532.64201,19481.62401,-67169.0708,-0.016,0.094,-0.99,192,0,0,0,0,0,0,0,0,0,0
 2023-06-24 15:05:58.233,-67086.23524,35084.77331,7715.777482,30977.50616,24551.29022,-58177.76867,17988.63923,-66284.07583,-0.016,0.094,-0.99,192,0,0,0,0,0,0,0,0,0,0
 2023-06-24 15:05:58.234,-67274.74985,34034.86717,6682.903371,29893.02187,23521.85828,-57598.65732,16966.06928,-65911.51695,-0.016,0.094,-0.99,192,0,0,0,0,0,0,0,0,0,0
 2023-06-24 15:05:58.234,-67569.47995,34811.88086,7490.583657,30555.63933,24319.18971,-58516.75523,17760.47263,-66498.02673,-0.016,0.094,-0.99,192,0,0,0,0,0,0,0,0,0,0
 2023-06-24 15:05:58.234,-67579.51588,36353.54773,9039.157216,32042.96911,25851.08886,-59677.45896,19283.5652,-67249.17945,-0.016,0.094,-0.99,192,0,0,0,0,0,0,0,0,0,0
 2023-06-24 15:05:58.234,-67287.33388,36628.69771,9290.703749,32394.89733,26102.41188,-59534.43015,19535.22349,-67160.01834,-0.016,0.094,-0.99,192,0,0,0,0,0,0,0,0,0,0
 2023-06-24 15:05:58.234,-67070.99135,35124.00062,7755.787105,30999.50027,24581.24156,-58184.07186,18020.82575,-66279.85135,-0.016,0.094,-0.99,192,0,0,0,0,0,0,0,0,0,0
 2023-06-24 15:05:58.234,-67251.97342,34089.0478,6734.871177,29929.9246,23564.30424,-57582.56407,17009.69988,-65891.75801,-0.018,0.096,-0.99,192,255,112,3,0,225,16,0,0,0,0
 2023-06-24 15:05:58.234,-67553.31964,34820.79921,7494.472861,30564.73649,24321.84956,-58495.07403,17760.42792,-66474.28918,-0.018,0.096,-0.99,192,0,0,0,0,0,0,0,0,0,0
 2023-06-24 15:05:58.234,-67576.20783,36301.71404,8978.718099,32003.56299,25798.33875,-59675.42495,19238.74995,-67235.56724,-0.018,0.096,-0.99,192,0,0,0,0,0,0,0,0,0,0
 2023-06-24 15:05:58.234,-67290.1055,36574.83,9226.084855,32346.23758,26040.92223,-59554.12204,19497.89607,-67158.8784,-0.018,0.096,-0.99,192,0,0,0,0,0,0,0,0,0,0
 2023-06-24 15:05:58.234,-67071.0584,35088.66252,7714.928116,30972.11939,24537.07451,-58209.99988,17974.24471,-66284.47816,-0.018,0.096,-0.99,192,0,0,0,0,0,0,0,0,0,0
 2023-06-24 15:05:58.234,-67244.30677,34060.68344,6706.372703,29902.3649,23527.73679,-57587.66026,16967.72331,-65885.11954,-0.018,0.096,-0.99,192,0,0,0,0,0,0,0,0,0,0
 2023-06-24 15:05:58.234,-67549.09516,34759.28721,7435.374848,30486.97477,24242.45617,-58488.97201,17693.19388,-66463.0686,-0.018,0.096,-0.99,192,0,0,0,0,0,0,0,0,0,0
 2023-06-24 15:05:58.234,-67574.50909,36253.99306,8933.165244,31936.91009,25736.64793,-59674.28502,19184.68108,-67229.3311,-0.018,0.096,-0.99,192,0,0,0,0,0,0,0,0,0,0
 2023-06-24 15:05:58.234,-67281.29891,36598.32169,9248.526007,32361.66029,26055.96495,-59560.0229,19489.44712,-67157.04556,-0.018,0.096,-0.99,192,0,0,0,0,0,0,0,0,0,0
 2023-06-24 15:05:58.234,-67055.81451,35141.27852,7765.644224,31010.67615,24581.57683,-58215.16314,18020.80339,-66281.63949,-0.018,0.096,-0.99,192,0,0,0,0,0,0,0,0,0,0
 2023-06-24 15:05:58.234,-67236.21544,34022.32784,6664.284368,29869.61959,23489.73882,-57584.57572,16931.33467,-65877.20703,-0.02,0.094,-0.99,192,255,96,2,240,225,16,0,0,0,0
 2023-06-24 15:05:58.234,-67546.85999,34701.03856,7375.136897,30444.3947,24195.22693,-58478.39963,17634.72171,-66450.41751,-0.02,0.094,-0.99,192,0,0,0,0,0,0,0,0,0,0
 2023-06-24 15:05:58.234,-67579.87351,36190.02237,8870.06627,31886.41749,25686.82589,-59672.63099,19120.44217,-67224.12315,-0.02,0.094,-0.99,192,0,0,0,0,0,0,0,0,0,0
 2023-06-24 15:05:58.234,-67284.09288,36576.46168,9232.991544,32345.23175,26051.71812,-59570.68468,19489.15654,-67159.07957,-0.02,0.094,-0.99,192,0,0,0,0,0,0,0,0,0,0
 2023-06-24 15:05:58.234,-67053.42287,35162.1774,7794.232106,31034.03372,24615.86441,-58227.79187,18061.01418,-66283.85231,-0.02,0.094,-0.99,192,0,0,0,0,0,0,0,0,0,0
 2023-06-24 15:05:58.234,-67225.15133,34074.02743,6723.963526,29910.32212,23546.86988,-57577.1773,16993.83014,-65864.80181,-0.02,0.094,-0.99,192,0,0,0,0,0,0,0,0,0,0
 2023-06-24 15:05:58.234,-67530.67732,34772.72061,7450.864607,30503.9621,24269.39002,-58455.71261,17699.36296,-66425.67413,-0.02,0.094,-0.99,192,0,0,0,0,0,0,0,0,0,0
 2023-06-24 15:05:58.234,-67562.77443,36292.16984,8978.785155,31976.07034,25783.87717,-59650.05572,19205.35644,-67199.98326,-0.02,0.094,-0.99,192,0,0,0,0,0,0,0,0,0,0
 2023-06-24 15:05:58.234,-67279.39901,36616.33719,9276.018652,32376.6136,26084.1505,-59570.66233,19505.09334,-67152.3517,-0.02,0.094,-0.99,192,0,0,0,0,0,0,0,0,0,0
 2023-06-24 15:05:58.234,-67047.41026,35193.00046,7823.37878,31071.94228,24647.1345,-58237.60429,18080.05787,-66283.40528,-0.02,0.094,-0.99,192,0,0,0,0,0,0,0,0,0,0
 2023-06-24 15:05:58.234,-67214.91423,34088.51136,6741.353183,29935.669,23565.51123,-57574.53979,17004.40252,-65856.01757,-0.02,0.094,-0.986,192,255,96,2,240,225,48,0,0,0,0
 2023-06-24 15:05:58.234,-67525.60348,34724.35143,7404.864717,30464.10894,24223.65835,-58449.09649,17653.60894,-66416.50992,-0.02,0.094,-0.986,192,0,0,0,0,0,0,0,0,0,0
 2023-06-24 15:05:58.234,-67564.49551,36221.06895,8902.096319,31913.57486,25720.06294,-59653.632,19157.70252,-67195.51291,-0.02,0.094,-0.986,192,0,0,0,0,0,0,0,0,0,0
 2023-06-24 15:05:58.234,-67279.57783,36589.13512,9239.361792,32361.70499,26065.84442,-59586.68853,19498.61133,-67155.95033,-0.02,0.094,-0.986,192,0,0,0,0,0,0,0,0,0,0
 2023-06-24 15:05:58.234,-67045.30919,35178.8518,7807.576097,31062.26397,24636.2939,-58258.68198,18063.87521,-66291.78718,-0.02,0.094,-0.986,192,0,0,0,0,0,0,0,0,0,0
 2023-06-24 15:05:58.234,-67211.18149,34060.7952,6708.741988,29910.63504,23533.54824,-57577.66903,16960.79427,-65854.74352,-0.02,0.094,-0.986,192,0,0,0,0,0,0,0,0,0,0
 2023-06-24 15:05:58.234,-67520.39552,34717.08712,7395.409929,30462.70078,24210.53788,-58436.75833,17636.21928,-66404.32822,-0.02,0.094,-0.986,192,0,0,0,0,0,0,0,0,0,0
 2023-06-24 15:05:58.234,-67561.70154,36247.89104,8930.103055,31947.61657,25739.33014,-59648.15583,19172.18645,-67185.96872,-0.02,0.094,-0.986,192,0,0,0,0,0,0,0,0,0,0
 2023-06-24 15:05:58.234,-67284.87519,36593.33725,9245.374411,32364.49896,26061.06115,-59602.58062,19487.88249,-67162.76761,-0.02,0.094,-0.986,192,0,0,0,0,0,0,0,0,0,0
 2023-06-24 15:05:58.234,-67045.04097,35217.87795,7843.87533,31092.39412,24668.23455,-58277.70332,18103.32603,-66301.28667,-0.02,0.094,-0.986,192,0,0,0,0,0,0,0,0,0,0
 2023-06-24 15:05:58.234,-67207.02406,34075.81557,6724.030581,29920.22394,23545.12644,-57580.463,16991.3938,-65852.84362,-0.024,0.094,-0.988,192,255,64,2,240,225,32,0,0,0,0
 2023-06-24 15:05:58.234,-67520.61904,34701.03856,7384.189353,30436.95157,24195.29399,-58425.82833,17635.25815,-66392.90647,-0.024,0.094,-0.988,192,0,0,0,0,0,0,0,0,0,0
 2023-06-24 15:05:58.234,-67573.9503,36187.09429,8878.291712,31878.03559,25679.8745,-59645.22775,19111.32265,-67180.53725,-0.024,0.094,-0.988,192,0,0,0,0,0,0,0,0,0,0
 2023-06-24 15:05:58.234,-67292.58654,36577.82514,9243.496864,32342.77306,26048.23125,-59611.9013,19487.25664,-67161.56061,-0.024,0.094,-0.988,192,0,0,0,0,0,0,0,0,0,0
 2023-06-24 15:05:58.234,-67047.09733,35218.5485,7853.643042,31091.25419,24671.4532,-58294.0648,18109.74099,-66304.28181,-0.024,0.094,-0.988,192,0,0,0,0,0,0,0,0,0,0
 2023-06-24 15:05:58.234,-67211.85204,34030.06155,6680.221162,29880.86252,23499.86416,-57587.48145,16943.56107,-65852.35189,-0.024,0.094,-0.988,192,0,0,0,0,0,0,0,0,0,0
 2023-06-24 15:05:58.234,-67520.64139,34666.75099,7353.746278,30400.74174,24156.53606,-58419.70395,17597.12608,-66384.83749,-0.024,0.094,-0.988,192,0,0,0,0,0,0,0,0,0,0
 2023-06-24 15:05:58.234,-67568.22825,36184.21092,8876.414165,31865.89859,25675.58297,-59639.97509,19110.07096,-67172.98236,-0.024,0.094,-0.988,192,0,0,0,0,0,0,0,0,0,0
 2023-06-24 15:05:58.234,-67276.22506,36672.57418,9336.2119,32425.8992,26140.05222,-59611.16369,19563.99018,-67156.64323,-0.024,0.094,-0.988,192,0,0,0,0,0,0,0,0,0,0
 2023-06-24 15:05:58.234,-67026.35491,35331.46952,7966.899331,31198.34139,24779.21096,-58296.18821,18207.99925,-66302.62778,-0.024,0.094,-0.988,192,0,0,0,0,0,0,0,0,0,0
 2023-06-24 15:05:58.234,-67188.40506,34094.76985,6750.204474,29933.97026,23565.95827,-57575.99265,17013.7232,-65840.55017,-0.022,0.088,-0.988,192,255,80,2,192,225,32,0,0,0,0
 2023-06-24 15:05:58.234,-67497.105,34712.03562,7399.165022,30442.62891,24208.01213,-58395.80994,17656.76053,-66365.6597,-0.022,0.088,-0.988,192,0,0,0,0,0,0,0,0,0,0
 2023-06-24 15:05:58.235,-67556.44888,36200.81826,8894.608485,31890.73138,25701.57805,-59624.44063,19128.04176,-67161.51591,-0.022,0.088,-0.988,192,0,0,0,0,0,0,0,0,0,0
 2023-06-24 15:05:58.235,-67282.10357,36607.88823,9277.203295,32363.94016,26084.17285,-59624.75355,19507.61908,-67164.89102,-0.022,0.088,-0.988,192,0,0,0,0,0,0,0,0,0,0
 2023-06-24 15:05:58.235,-67035.60853,35252.63491,7897.497165,31110.74491,24704.98082,-58324.55257,18131.6457,-66319.30218,-0.022,0.088,-0.988,192,0,0,0,0,0,0,0,0,0,0
 2023-06-24 15:05:58.235,-67177.51976,34115.93695,6775.797221,29953.5951,23585.5831,-57573.15398,17022.1498,-65834.40344,-0.022,0.088,-0.988,192,0,0,0,0,0,0,0,0,0,0
 2023-06-24 15:05:58.235,-67487.58316,34698.62457,7384.837554,30437.9574,24193.81877,-58382.08596,17632.50889,-66354.01444,-0.022,0.088,-0.988,192,0,0,0,0,0,0,0,0,0,0
 2023-06-24 15:05:58.235,-67545.00479,36210.11659,8901.224601,31897.74983,25709.71408,-59613.13064,19148.82888,-67150.42945,-0.022,0.088,-0.988,192,0,0,0,0,0,0,0,0,0,0
 2023-06-24 15:05:58.235,-67265.7868,36661.97946,9329.484025,32414.83509,26139.89575,-59622.02664,19566.78415,-67160.64419,-0.022,0.088,-0.988,192,0,0,0,0,0,0,0,0,0,0
 2023-06-24 15:05:58.235,-67018.21888,35305.40738,7947.40861,31161.9304,24759.09439,-58329.76053,18181.42303,-66322.74435,-0.022,0.088,-0.988,192,0,0,0,0,0,0,0,0,0,0
 2023-06-24 15:05:58.235,-67169.20491,34070.60761,6729.238537,29913.2502,23541.63957,-57576.39498,16962.82827,-65836.68331,-0.02,0.088,-0.992,192,255,96,2,192,225,0,0,0,0,0
 2023-06-24 15:05:58.235,-67490.15361,34572.58309,7257.857294,30308.69726,24063.75397,-58384.56701,17490.91059,-66357.45661,-0.02,0.088,-0.992,192,0,0,0,0,0,0,0,0,0,0
 2023-06-24 15:05:58.235,-67557.56647,36082.33167,8773.260864,31765.06987,25576.60944,-59626.6758,19006.06829,-67160.30892,-0.02,0.088,-0.992,192,0,0,0,0,0,0,0,0,0,0
 2023-06-24 15:05:58.235,-67281.70124,36567.49863,9233.304469,32315.23571,26036.38483,-59649.40752,19471.07398,-67175.53045,-0.02,0.088,-0.992,192,0,0,0,0,0,0,0,0,0,0
 2023-06-24 15:05:58.235,-67037.28492,35198.76721,7835.381667,31056.11724,24650.88959,-58368.36199,18079.56613,-66342.6821,-0.02,0.088,-0.992,192,0,0,0,0,0,0,0,0,0,0
 2023-06-24 15:05:58.235,-67172.69178,34030.95562,6678.567133,29875.07342,23504.40157,-57586.98971,16936.20735,-65836.4598,-0.02,0.088,-0.992,192,0,0,0,0,0,0,0,0,0,0
 2023-06-24 15:05:58.235,-67472.7863,34648.08728,7326.588908,30376.15483,24141.02395,-58363.914,17573.50028,-66334.36726,-0.02,0.088,-0.992,192,0,0,0,0,0,0,0,0,0,0
 2023-06-24 15:05:58.235,-67536.77935,36181.9981,8871.586188,31852.62166,25670.03973,-59606.13455,19100.16913,-67137.75601,-0.02,0.088,-0.992,192,0,0,0,0,0,0,0,0,0,0
 2023-06-24 15:05:58.235,-67259.05892,36687.72867,9356.574339,32422.6582,26150.08815,-59643.50666,19590.02997,-67164.13106,-0.02,0.088,-0.992,192,0,0,0,0,0,0,0,0,0,0
 2023-06-24 15:05:58.235,-67003.51143,35377.60352,8015.760245,31241.43556,24825.99316,-58362.68465,18253.48505,-66332.64617,-0.02,0.088,-0.992,192,0,0,0,0,0,0,0,0,0,0
 2023-06-24 15:05:58.235,-67142.29341,34127.91748,6779.172335,29977.17619,23594.03206,-57569.30948,17029.99527,-65822.3782,-0.024,0.092,-0.994,192,255,64,2,224,224,240,0,0,0,0
 2023-06-24 15:05:58.235,-67457.29655,34636.19615,7319.391646,30378.76998,24127.94818,-58344.66914,17557.42938,-66321.22443,-0.024,0.092,-0.994,192,0,0,0,0,0,0,0,0,0,0
 2023-06-24 15:05:58.235,-67518.20505,36229.83083,8921.676448,31913.35135,25726.41083,-59583.93926,19153.43334,-67120.41105,-0.024,0.092,-0.994,192,0,0,0,0,0,0,0,0,0,0
 2023-06-24 15:05:58.235,-67239.67996,36758.6284,9422.891965,32503.57151,26230.12975,-59634.23069,19662.2708,-67155.61505,-0.024,0.092,-0.994,192,0,0,0,0,0,0,0,0,0,0
 2023-06-24 15:05:58.235,-66987.55228,35399.44117,8038.603728,31264.01082,24851.09417,-58366.14917,18291.70654,-66335.44014,-0.024,0.092,-0.994,192,0,0,0,0,0,0,0,0,0,0
 2023-06-24 15:05:58.235,-67138.22539,34030.50858,6685.362063,29892.21721,23504.49097,-57573.71277,16939.13542,-65830.62599,-0.024,0.092,-0.994,192,0,0,0,0,0,0,0,0,0,0
 2023-06-24 15:05:58.235,-67454.36847,34536.70854,7221.200433,30289.07243,24035.09903,-58340.01998,17467.01657,-66324.35367,-0.024,0.092,-0.994,192,0,0,0,0,0,0,0,0,0,0
 2023-06-24 15:05:58.235,-67525.82699,36110.31605,8800.462937,31800.07271,25610.00295,-59589.39309,19036.77959,-67132.65981,-0.024,0.092,-0.994,192,0,0,0,0,0,0,0,0,0,0
 2023-06-24 15:05:58.235,-67250.05117,36676.26222,9340.391676,32428.64846,26150.40107,-59654.45902,19585.73843,-67177.60917,-0.024,0.092,-0.994,192,0,0,0,0,0,0,0,0,0,0
 2023-06-24 15:05:58.235,-66990.99445,35384.13023,8021.147015,31250.42096,24838.24192,-58388.38916,18279.99422,-66357.27779,-0.024,0.092,-0.994,192,0,0,0,0,0,0,0,0,0,0
 2023-06-24 15:05:58.235,-67133.2186,34039.78456,6693.408691,29893.04422,23511.68823,-57575.14329,16953.61936,-65835.8563,-0.024,0.092,-0.994,192,0,0,0,0,0,0,0,0,0,0
 2023-06-24 15:05:58.235,-67447.48413,34550.41016,7236.131398,30293.8557,24048.823,-58323.63615,17484.94267,-66316.39645,-0.028,0.098,-0.99,192,255,32,3,16,225,16,0,0,0,0
 2023-06-24 15:05:58.235,-67525.44701,36098.84961,8792.863344,31777.34098,25596.18957,-59578.6866,19040.28881,-67127.74242,-0.028,0.098,-0.99,192,0,0,0,0,0,0,0,0,0,0
 2023-06-24 15:05:58.235,-67250.4535,36695.88705,9362.4752,32439.84669,26169.57887,-59658.34822,19609.63245,-67181.61013,-0.028,0.098,-0.99,192,0,0,0,0,0,0,0,0,0,0
 2023-06-24 15:05:58.235,-66985.63003,35429.14664,8060.307272,31288.39657,24873.53532,-58398.15687,18314.43826,-66367.89487,-0.028,0.098,-0.99,192,0,0,0,0,0,0,0,0,0,0
 2023-06-24 15:05:58.235,-67117.8406,34133.05839,6777.96534,29966.31324,23591.52867,-57563.29686,17042.93693,-65832.81646,-0.028,0.098,-0.99,192,0,0,0,0,0,0,0,0,0,0
 2023-06-24 15:05:58.235,-67426.18292,34654.99397,7329.025248,30396.47256,24149.00352,-58296.07645,17588.16303,-66303.11952,-0.028,0.098,-0.99,192,0,0,0,0,0,0,0,0,0,0
 2023-06-24 15:05:58.235,-67517.82507,36109.55609,8793.712711,31806.95704,25612.05931,-59564.96263,19041.62992,-67126.46838,-0.028,0.098,-0.99,192,0,0,0,0,0,0,0,0,0,0
 2023-06-24 15:05:58.235,-67256.1532,36649.10485,9310.686208,32411.34821,26127.46818,-59668.67473,19551.16028,-67197.59163,-0.028,0.098,-0.99,192,0,0,0,0,0,0,0,0,0,0
 2023-06-24 15:05:58.235,-66985.58533,35433.50523,8066.833981,31296.26439,24884.89001,-58413.73604,18313.76771,-66385.26218,-0.028,0.098,-0.99,192,0,0,0,0,0,0,0,0,0,0
 2023-06-24 15:05:58.235,-67109.59281,34145.84358,6791.041111,30002.3219,23614.97564,-57560.18997,17043.31691,-65836.5492,-0.028,0.098,-0.99,192,0,0,0,0,0,0,0,0,0,0
 2023-06-24 15:05:58.235,-67422.89721,34619.25353,7291.809594,30375.37251,24114.24656,-58281.77134,17541.22437,-66301.75606,-0.022,0.094,-0.988,192,255,80,2,240,225,32,0,0,0,0
 2023-06-24 15:05:58.235,-67511.05249,36131.84078,8811.750568,31831.94629,25638.14379,-59545.51662,19069.45784,-67119.62874,-0.022,0.094,-0.988,192,0,0,0,0,0,0,0,0,0,0
 2023-06-24 15:05:58.235,-67249.13475,36704.87245,9358.027203,32466.37821,26188.95783,-59661.8798,19622.68586,-67198.08336,-0.022,0.094,-0.988,192,0,0,0,0,0,0,0,0,0,0
 2023-06-24 15:05:58.235,-66986.68057,35429.99601,8054.160542,31296.73377,24885.29234,-58424.55428,18322.32843,-66397.80151,-0.022,0.094,-0.988,192,0,0,0,0,0,0,0,0,0,0
 2023-06-24 15:05:58.235,-67109.97279,34109.87963,6753.713698,29960.92647,23577.11179,-57562.20163,17016.49481,-65842.15949,-0.022,0.094,-0.988,192,0,0,0,0,0,0,0,0,0,0
 2023-06-24 15:05:58.235,-67423.47836,34570.52673,7245.787352,30314.19579,24057.04845,-58272.36125,17489.88241,-66299.14091,-0.022,0.094,-0.988,192,0,0,0,0,0,0,0,0,0,0
 2023-06-24 15:05:58.235,-67509.13024,36111.79127,8799.188888,31792.27195,25602.9398,-59536.3524,19032.4657,-67116.38774,-0.022,0.094,-0.988,192,0,0,0,0,0,0,0,0,0,0
 2023-06-24 15:05:58.235,-67251.63814,36674.13881,9334.893147,32430.36955,26147.62946,-59670.2617,19579.09996,-67206.73349,-0.022,0.094,-0.988,192,0,0,0,0,0,0,0,0,0,0
 2023-06-24 15:05:58.235,-66982.79136,35449.44202,8080.110917,31317.6103,24899.08336,-58438.2112,18339.3381,-66410.542,-0.022,0.094,-0.988,192,0,0,0,0,0,0,0,0,0,0
 2023-06-24 15:05:58.713,-67098.59575,34153.37612,6799.691236,30009.80973,23619.71421,-57556.77015,17072.75415,-65841.95833,-0.022,0.094,-0.988,192,0,0,0,0,0,0,0,0,0,0
 2023-06-24 15:05:58.714,-67419.72326,34561.63073,7239.171235,30320.00724,24054.96973,-58258.52552,17493.52574,-66295.05054,-0.022,0.088,-0.984,192,255,80,2,192,225,64,0,0,0,0
 2023-06-24 15:05:58.714,-67518.11564,36062.9527,8750.216216,31753.40226,25559.3986,-59531.01033,18995.98765,-67118.30999,-0.022,0.088,-0.984,192,0,0,0,0,0,0,0,0,0,0
 2023-06-24 15:05:58.714,-67262.00935,36660.90657,9323.627868,32409.56007,26133.86078,-59677.9507,19580.70929,-67215.71889,-0.022,0.088,-0.984,192,0,0,0,0,0,0,0,0,0,0
 2023-06-24 15:05:58.714,-66982.27727,35496.29128,8131.631688,31360.70446,24950.13475,-58447.62128,18393.60814,-66418.231,-0.022,0.088,-0.984,192,0,0,0,0,0,0,0,0,0,0
 2023-06-24 15:05:58.714,-67099.78039,34113.76883,6764.934273,29974.89631,23582.27504,-57557.68657,17023.71443,-65844.70759,-0.022,0.088,-0.984,192,0,0,0,0,0,0,0,0,0,0
 2023-06-24 15:05:58.714,-67423.23249,34481.41032,7160.358985,30234.10949,23971.53067,-58251.77529,17415.96519,-66290.91546,-0.022,0.088,-0.984,192,0,0,0,0,0,0,0,0,0,0
 2023-06-24 15:05:58.714,-67518.85325,36030.92265,8721.69539,31722.33334,25528.95552,-59523.5225,18972.87595,-67112.14091,-0.022,0.088,-0.984,192,0,0,0,0,0,0,0,0,0,0
 2023-06-24 15:05:58.714,-67270.36891,36625.70257,9289.18383,32400.2841,26108.73742,-59693.14989,19533.10007,-67224.99487,-0.022,0.088,-0.984,192,0,0,0,0,0,0,0,0,0,0
 2023-06-24 15:05:58.714,-67002.79617,35403.41978,8041.464751,31283.52389,24860.21368,-58484.09933,18289.2702,-66442.25913,-0.022,0.088,-0.984,192,0,0,0,0,0,0,0,0,0,0
 2023-06-24 15:05:58.714,-67110.37512,34076.88845,6726.802197,29935.64665,23542.73481,-57576.26087,16981.80491,-65854.76587,-0.022,0.088,-0.984,192,0,0,0,0,0,0,0,0,0,0
 2023-06-24 15:05:58.714,-67421.82433,34501.90687,7182.174287,30251.05211,23990.03792,-58247.03672,17438.38399,-66285.46164,-0.024,0.094,-0.982,192,255,64,2,240,225,80,0,0,0,0
 2023-06-24 15:05:58.714,-67524.0165,36010.64962,8702.361131,31704.00491,25505.75441,-59524.01424,18946.21032,-67110.37512,-0.024,0.094,-0.982,192,0,0,0,0,0,0,0,0,0,0
 2023-06-24 15:05:58.714,-67272.08999,36644.70156,9314.888336,32400.37351,26120.31563,-59703.36463,19557.23996,-67228.79466,-0.024,0.094,-0.982,192,0,0,0,0,0,0,0,0,0,0
 2023-06-24 15:05:58.714,-66996.94002,35451.6772,8090.057443,31315.6657,24905.56537,-58499.87966,18354.09026,-66449.79166,-0.024,0.094,-0.982,192,0,0,0,0,0,0,0,0,0,0
 2023-06-24 15:05:58.714,-67107.24588,34067.47837,6713.480558,29939.44644,23539.38205,-57582.69818,16966.65042,-65857.33633,-0.024,0.094,-0.982,192,0,0,0,0,0,0,0,0,0,0
 2023-06-24 15:05:58.714,-67414.91764,34511.16049,7186.622284,30269.82758,24002.01845,-58238.52071,17421.86605,-66276.65505,-0.024,0.094,-0.982,192,0,0,0,0,0,0,0,0,0,0
 2023-06-24 15:05:58.714,-67526.16227,35981.81587,8662.552674,31672.17602,25474.75254,-59523.29898,18903.0044,-67107.89408,-0.024,0.094,-0.982,192,0,0,0,0,0,0,0,0,0,0
 2023-06-24 15:05:58.714,-67279.17549,36635.35853,9297.297513,32380.70397,26107.57513,-59717.49094,19540.63261,-67235.36607,-0.024,0.094,-0.982,192,0,0,0,0,0,0,0,0,0,0
 2023-06-24 15:05:58.714,-66998.28112,35487.5741,8120.031133,31348.45571,24939.67413,-58520.01858,18375.90556,-66459.20175,-0.024,0.094,-0.982,192,0,0,0,0,0,0,0,0,0,0
 2023-06-24 15:05:58.714,-67104.3178,34068.73006,6714.128758,29927.57767,23539.91849,-57590.0519,16976.75341,-65859.25858,-0.024,0.094,-0.982,192,0,0,0,0,0,0,0,0,0,0
 2023-06-24 15:05:58.714,-67414.76118,34474.41423,7154.301662,30233.01425,23970.14486,-58234.78797,17394.9322,-66271.89413,-0.024,0.094,-0.986,192,255,64,2,240,225,48,0,0,0,0
 2023-06-24 15:05:58.714,-67523.18949,35988.83432,8682.736299,31681.96609,25489.75056,-59514.44769,18912.638,-67097.79109,-0.024,0.094,-0.986,192,0,0,0,0,0,0,0,0,0,0
 2023-06-24 15:05:58.714,-67270.54772,36706.66059,9371.326491,32460.81262,26189.56133,-59719.77082,19616.60619,-67229.08523,-0.024,0.094,-0.986,192,0,0,0,0,0,0,0,0,0,0
 2023-06-24 15:05:58.714,-66984.5795,35583.99952,8216.680076,31449.82087,25046.42606,-58530.30038,18471.19105,-66457.74888,-0.024,0.094,-0.986,192,0,0,0,0,0,0,0,0,0,0
 2023-06-24 15:05:58.715,-67090.16914,34120.25084,6768.287035,29983.0994,23591.79689,-57588.06259,17019.98168,-65850.67551,-0.024,0.094,-0.986,192,0,0,0,0,0,0,0,0,0,0
 2023-06-24 15:05:58.715,-67404.74759,34489.45695,7168.24915,30243.98896,23980.24785,-58222.87449,17408.11973,-66257.96899,-0.024,0.094,-0.986,192,0,0,0,0,0,0,0,0,0,0
 2023-06-24 15:05:58.715,-67515.20992,36001.03837,8694.158041,31688.82807,25499.04889,-59505.75286,18917.68949,-67083.03894,-0.024,0.094,-0.986,192,0,0,0,0,0,0,0,0,0,0
 2023-06-24 15:05:58.715,-67263.61868,36729.25821,9400.875497,32480.72803,26209.94612,-59725.3364,19623.84816,-67223.34084,-0.024,0.094,-0.986,192,0,0,0,0,0,0,0,0,0,0
 2023-06-24 15:05:58.715,-66979.95269,35599.0646,8239.344745,31475.81595,25062.96635,-58547.1983,18491.15115,-66458.08416,-0.024,0.094,-0.986,192,0,0,0,0,0,0,0,0,0,0
 2023-06-24 15:05:58.715,-67072.77949,34183.14864,6834.247033,30056.7931,23660.12617,-57583.14521,17097.7434,-65832.16826,-0.024,0.094,-0.986,192,0,0,0,0,0,0,0,0,0,0
 2023-06-24 15:05:58.715,-67391.60477,34500.05168,7180.564962,30249.91217,23991.98252,-58210.35751,17441.80381,-66233.31502,-0.018,0.098,-0.984,192,255,112,3,16,225,64,0,0,0,0
 2023-06-24 15:05:58.715,-67510.73957,35973.99276,8668.028852,31651.25479,25466.99649,-59498.89088,18909.59816,-67064.64345,-0.018,0.098,-0.984,192,0,0,0,0,0,0,0,0,0,0
 2023-06-24 15:05:58.715,-67266.72557,36690.52263,9361.715241,32439.17613,26167.41075,-59737.92043,19589.89586,-67218.64697,-0.018,0.098,-0.984,192,0,0,0,0,0,0,0,0,0,0
 2023-06-24 15:05:58.715,-66983.976,35559.3679,8194.931828,31430.41956,25015.5583,-58570.75704,18441.7985,-66463.29212,-0.018,0.098,-0.984,192,0,0,0,0,0,0,0,0,0,0
 2023-06-24 15:05:58.715,-67074.52292,34120.92139,6765.828343,29998.92443,23594.92613,-57595.1481,17025.9943,-65832.0565,-0.018,0.098,-0.984,192,0,0,0,0,0,0,0,0,0,0
 2023-06-24 15:05:58.715,-67382.79818,34497.39182,7170.305511,30269.69347,23994.08358,-58201.57328,17435.90295,-66216.66297,-0.018,0.098,-0.984,192,0,0,0,0,0,0,0,0,0,0
 2023-06-24 15:05:58.715,-67499.78721,35995.18222,8678.869448,31698.03699,25495.87494,-59487.40208,18945.13743,-67042.26935,-0.018,0.098,-0.984,192,0,0,0,0,0,0,0,0,0,0
 2023-06-24 15:05:58.715,-67264.71391,36659.07373,9322.264412,32414.45511,26135.29129,-59746.86113,19570.67335,-67211.27089,-0.018,0.098,-0.984,192,0,0,0,0,0,0,0,0,0,0
 2023-06-24 15:05:58.715,-66983.59602,35530.33299,8167.908569,31388.95707,24976.71097,-58592.86292,18409.92491,-66464.02973,-0.018,0.098,-0.984,192,0,0,0,0,0,0,0,0,0,0
 2023-06-24 15:05:58.715,-67071.25957,34084.75627,6732.72541,29946.26372,23538.71149,-57603.88763,16978.07216,-65822.82523,-0.018,0.098,-0.984,192,0,0,0,0,0,0,0,0,0,0
 2023-06-24 15:05:58.715,-67392.90117,34375.01602,7054.568178,30134.48776,23853.24524,-58205.7754,17290.4825,-66209.421,-0.018,0.098,-0.988,192,255,112,3,16,225,32,0,0,0,0
 2023-06-24 15:05:58.715,-67516.72983,35874.34869,8564.361461,31577.60579,25370.3699,-59493.88409,18805.32727,-67039.14011,-0.018,0.098,-0.988,192,0,0,0,0,0,0,0,0,0,0
 2023-06-24 15:05:58.715,-67283.35527,36580.90968,9251.632899,32334.56997,26061.84346,-59765.6813,19499.43835,-67215.49537,-0.018,0.098,-0.988,192,0,0,0,0,0,0,0,0,0,0
 2023-06-24 15:05:58.715,-66991.39678,35527.69548,8169.003805,31391.2593,24978.83439,-58616.91339,18412.9424,-66470.48938,-0.018,0.098,-0.988,192,0,0,0,0,0,0,0,0,0,0
 2023-06-24 15:05:58.715,-67064.46464,34118.35094,6769.471677,29987.79327,23578.72112,-57606.74865,17013.49968,-65814.06335,-0.018,0.098,-0.988,192,0,0,0,0,0,0,0,0,0,0
 2023-06-24 15:05:58.715,-67383.11111,34400.25114,7083.334873,30163.05329,23884.69415,-58191.58205,17320.38913,-66189.14797,-0.018,0.098,-0.988,192,0,0,0,0,0,0,0,0,0,0
 2023-06-24 15:05:58.715,-67509.2867,35898.22035,8594.826888,31594.34725,25395.76148,-59478.59549,18813.95505,-67020.16348,-0.018,0.098,-0.988,192,0,0,0,0,0,0,0,0,0,0
 2023-06-24 15:05:58.715,-67263.86455,36711.08624,9383.888171,32456.6999,26189.18135,-59752.18084,19614.46042,-67196.29523,-0.018,0.098,-0.988,192,0,0,0,0,0,0,0,0,0,0
 2023-06-24 15:05:58.715,-66973.13541,35653.33464,8294.799423,31508.31539,25104.87588,-58614.90174,18542.38135,-66459.42527,-0.018,0.098,-0.988,192,0,0,0,0,0,0,0,0,0,0
 2023-06-24 15:05:58.715,-67050.18187,34166.94363,6811.582364,30027.86994,23631.47123,-57599.55139,17084.98056,-65801.09934,-0.018,0.098,-0.988,192,0,0,0,0,0,0,0,0,0,0
 2023-06-24 15:05:58.715,-67365.81086,34433.30937,7109.17349,30193.16109,23922.6027,-58170.63846,17367.55131,-66166.84093,-0.018,0.096,-0.992,192,255,112,3,0,225,0,0,0,0,0
 2023-06-24 15:05:58.715,-67490.28772,35944.86844,8634.657697,31637.55317,25441.31433,-59457.87543,18863.50886,-66994.79425,-0.018,0.096,-0.992,192,0,0,0,0,0,0,0,0,0,0
 2023-06-24 15:05:58.715,-67258.38837,36675.61402,9342.805665,32421.67472,26148.47882,-59758.21582,19568.0135,-67186.59457,-0.018,0.096,-0.992,192,0,0,0,0,0,0,0,0,0,0
 2023-06-24 15:05:58.715,-66975.19177,35581.27261,8219.652858,31440.38843,25033.99849,-58640.27097,18460.66337,-66461.63809,-0.018,0.096,-0.992,192,0,0,0,0,0,0,0,0,0,0
 2023-06-24 15:05:58.715,-67044.90686,34118.4627,6767.616483,29983.81465,23585.6278,-57611.19665,17026.75426,-65793.72326,-0.018,0.096,-0.992,192,0,0,0,0,0,0,0,0,0,0
 2023-06-24 15:05:58.715,-67362.70396,34365.78475,7049.941367,30126.50819,23854.34048,-58170.10202,17291.37657,-66152.42406,-0.018,0.096,-0.992,192,0,0,0,0,0,0,0,0,0,0
 2023-06-24 15:05:58.715,-67496.54621,35861.36232,8555.823094,31557.66804,25358.63523,-59461.16113,18779.73453,-66984.02071,-0.018,0.096,-0.992,192,0,0,0,0,0,0,0,0,0,0
 2023-06-24 15:05:58.715,-67267.06085,36632.22928,9301.544345,32377.8206,26112.269,-59773.3256,19534.01649,-67186.3487,-0.018,0.096,-0.992,192,0,0,0,0,0,0,0,0,0,0
 2023-06-24 15:05:58.715,-66974.9012,35605.07722,8240.216463,31461.84611,25055.43382,-58659.00173,18494.95095,-66464.02973,-0.018,0.096,-0.992,192,0,0,0,0,0,0,0,0,0,0
 2023-06-24 15:05:58.715,-67043.43164,34118.5074,6758.74284,29985.35693,23574.42958,-57621.38905,17013.74555,-65788.87293,-0.018,0.096,-0.992,192,0,0,0,0,0,0,0,0,0,0
 2023-06-24 15:05:58.715,-67359.06063,34352.77603,7024.572137,30125.3459,23838.22487,-58166.25752,17276.06562,-66135.61554,-0.02,0.096,-0.992,192,255,96,3,0,225,0,0,0,0,0
 2023-06-24 15:05:58.715,-67494.35574,35839.30115,8528.866891,31542.22298,25336.88698,-59457.80837,18778.8181,-66964.90997,-0.02,0.096,-0.992,192,0,0,0,0,0,0,0,0,0,0
 2023-06-24 15:05:58.715,-67260.95882,36663.63349,9333.954374,32409.2248,26140.00751,-59781.84161,19568.57229,-67173.69761,-0.02,0.096,-0.992,192,0,0,0,0,0,0,0,0,0,0
 2023-06-24 15:05:58.715,-66964.30647,35662.94589,8301.862574,31523.44752,25116.49878,-58676.92783,18549.3551,-66458.5759,-0.02,0.096,-0.992,192,0,0,0,0,0,0,0,0,0,0
 2023-06-24 15:05:58.715,-67027.94189,34152.19148,6800.294733,30028.78636,23618.2837,-57626.08291,17062.04767,-65776.42301,-0.02,0.096,-0.992,192,0,0,0,0,0,0,0,0,0,0
 2023-06-24 15:05:58.715,-67338.92171,34389.23173,7067.286321,30161.75689,23876.78163,-58155.41692,17305.59228,-66115.05194,-0.02,0.096,-0.992,192,0,0,0,0,0,0,0,0,0,0
 2023-06-24 15:05:58.715,-67486.66674,35804.23126,8494.758128,31498.07829,25294.64219,-59456.13199,18723.13991,-66951.56598,-0.02,0.096,-0.992,192,0,0,0,0,0,0,0,0,0,0
 2023-06-24 15:05:58.715,-67265.60798,36586.49762,9255.209178,32319.16962,26061.7317,-59801.37703,19493.40337,-67173.38469,-0.02,0.096,-0.992,192,0,0,0,0,0,0,0,0,0,0
 2023-06-24 15:05:58.715,-66963.34534,35646.47265,8278.862629,31497.13951,25103.60183,-58701.22417,18525.48343,-66459.89465,-0.02,0.096,-0.992,192,0,0,0,0,0,0,0,0,0,0
 2023-06-24 15:05:58.715,-67024.47737,34114.97582,6752.886683,29977.64557,23579.25756,-57639.58337,17006.21301,-65771.23741,-0.02,0.096,-0.992,192,0,0,0,0,0,0,0,0,0,0
 2023-06-24 15:05:58.715,-67331.97031,34371.93148,7047.03564,30138.37697,23863.97408,-58153.18175,17290.81777,-66097.34936,-0.022,0.096,-0.99,192,255,80,3,0,225,16,0,0,0,0
 2023-06-24 15:05:58.715,-67476.20612,35843.30211,8538.656955,31540.01016,25342.8996,-59448.6218,18763.70832,-66928.07429,-0.022,0.096,-0.99,192,0,0,0,0,0,0,0,0,0,0
 2023-06-24 15:05:58.715,-67254.47682,36649.88716,9323.78433,32391.9022,26127.13291,-59805.66857,19536.16226,-67157.73847,-0.022,0.096,-0.99,192,0,0,0,0,0,0,0,0,0,0
 2023-06-24 15:05:58.715,-66953.7788,35695.80295,8340.173464,31554.38233,25148.43943,-58719.41849,18556.99939,-66454.57494,-0.022,0.096,-0.99,192,0,0,0,0,0,0,0,0,0,0
 2023-06-24 15:05:58.715,-67007.6465,34171.52574,6824.144044,30045.48312,23632.81234,-57644.05371,17056.92912,-65758.04988,-0.022,0.096,-0.99,192,0,0,0,0,0,0,0,0,0,0
 2023-06-24 15:05:58.715,-67320.19094,34350.22793,7030.62946,30126.5976,23837.10728,-58147.59381,17269.47186,-66081.9043,-0.022,0.096,-0.99,192,0,0,0,0,0,0,0,0,0,0
 2023-06-24 15:05:58.715,-67470.95346,35798.75509,8491.114794,31499.01706,25297.48086,-59443.81618,18725.91153,-66914.1268,-0.022,0.096,-0.99,192,0,0,0,0,0,0,0,0,0,0
 2023-06-24 15:05:58.715,-67242.87626,36677.69273,9348.862988,32417.36083,26153.61972,-59810.63066,19583.16798,-67147.56842,-0.022,0.096,-0.99,192,0,0,0,0,0,0,0,0,0,0
 2023-06-24 15:05:58.715,-66941.39593,35705.79418,8345.560234,31557.84685,25156.32959,-58739.93739,18589.63294,-66453.45735,-0.022,0.096,-0.99,192,0,0,0,0,0,0,0,0,0,0
 2023-06-24 15:05:58.715,-66988.91574,34179.77353,6825.75337,30060.54819,23646.04457,-57651.76507,17087.30514,-65745.08586,-0.022,0.096,-0.99,192,0,0,0,0,0,0,0,0,0,0
 2023-06-24 15:05:58.715,-67301.66135,34350.25029,7023.990992,30135.04656,23847.45614,-58142.83289,17284.7381,-66059.17258,-0.016,0.098,-0.99,192,255,128,3,16,225,16,0,0,0,0
 2023-06-24 15:05:58.715,-67464.62792,35732.75038,8423.098436,31440.52254,25241.15446,-59449.62763,18655.7494,-66900.15696,-0.016,0.098,-0.99,192,0,0,0,0,0,0,0,0,0,0
 2023-06-24 15:05:58.715,-67246.47489,36575.9923,9249.017745,32322.94706,26059.63064,-59834.77054,19464.8602,-67146.45084,-0.016,0.098,-0.99,192,0,0,0,0,0,0,0,0,0,0
 2023-06-24 15:05:58.715,-66945.59806,35627.60778,8269.854876,31480.39806,25080.89245,-58771.85568,18500.87416,-66459.04529,-0.016,0.098,-0.99,192,0,0,0,0,0,0,0,0,0,0
 2023-06-24 15:05:58.715,-66990.12273,34101.49772,6748.6175,29966.06737,23565.37712,-57669.49,16999.90982,-65742.18014,-0.016,0.098,-0.99,192,0,0,0,0,0,0,0,0,0,0
 2023-06-24 15:05:58.715,-67296.34163,34293.67802,6968.759831,30064.88443,23789.87805,-58139.32367,17213.39133,-66043.19108,-0.016,0.098,-0.99,192,0,0,0,0,0,0,0,0,0,0
 2023-06-24 15:05:58.716,-67456.26836,35717.12651,8408.301581,31410.41474,25223.96597,-59438.49646,18638.94089,-66878.00638,-0.016,0.098,-0.99,192,0,0,0,0,0,0,0,0,0,0
 2023-06-24 15:05:58.716,-67240.14935,36594.90187,9268.575522,32331.61954,26083.27879,-59836.71514,19490.43059,-67133.88915,-0.016,0.098,-0.99,192,0,0,0,0,0,0,0,0,0,0
 2023-06-24 15:05:58.716,-66936.5456,35676.02166,8318.760493,31527.40378,25136.14597,-58785.15497,18543.02955,-66454.91021,-0.016,0.098,-0.99,192,0,0,0,0,0,0,0,0,0,0
 2023-06-24 15:05:58.716,-66978.29866,34126.35286,6773.427936,29990.02844,23588.53353,-57675.9273,17002.45792,-65736.14517,-0.016,0.098,-0.99,192,0,0,0,0,0,0,0,0,0,0
 2023-06-24 15:05:58.716,-67293.25709,34242.2243,6919.16131,29996.51045,23724.65565,-58141.38003,17143.8774,-66035.74795,-0.014,0.098,-0.984,192,255,144,3,16,225,64,0,0,0,0
 2023-06-24 15:05:58.716,-67449.09345,35704.40837,8396.343398,31380.23989,25193.27702,-59433.55673,18611.56,-66864.59534,-0.014,0.098,-0.984,192,0,0,0,0,0,0,0,0,0,0
 2023-06-24 15:05:58.716,-67237.75771,36557.64151,9227.582422,32279.36116,26031.15452,-59848.18159,19457.8641,-67132.72686,-0.014,0.098,-0.984,192,0,0,0,0,0,0,0,0,0,0
 2023-06-24 15:05:58.716,-66930.17536,35667.97503,8305.461205,31508.91888,25123.49488,-58809.20545,18553.13254,-66460.38639,-0.014,0.098,-0.984,192,0,0,0,0,0,0,0,0,0,0
 2023-06-24 15:05:58.716,-66968.26273,34097.20619,6740.727334,29971.54355,23562.82903,-57692.28878,16992.48904,-65734.84877,-0.014,0.098,-0.984,192,0,0,0,0,0,0,0,0,0,0
 2023-06-24 15:05:58.716,-67274.99572,34233.68594,6908.432473,30010.63675,23717.77132,-58137.26731,17147.49839,-66019.29707,-0.014,0.098,-0.984,192,0,0,0,0,0,0,0,0,0,0
 2023-06-24 15:05:58.716,-67437.42584,35674.30057,8366.794391,31368.39347,25170.32178,-59430.85217,18608.78838,-66851.63133,-0.014,0.098,-0.984,192,0,0,0,0,0,0,0,0,0,0
 2023-06-24 15:05:58.716,-67226.40302,36586.05058,9259.813638,32319.97428,26067.29729,-59858.06106,19502.85816,-67125.39549,-0.014,0.098,-0.984,192,0,0,0,0,0,0,0,0,0,0
 2023-06-24 15:05:58.716,-66928.119,35659.21314,8300.633228,31510.10352,25117.05758,-58835.24523,18543.81186,-66464.18619,-0.014,0.098,-0.984,192,0,0,0,0,0,0,0,0,0,0
 2023-06-24 15:05:58.716,-66962.33952,34112.763,6757.84877,29986.22864,23576.91062,-57703.97874,16998.9934,-65728.255,-0.014,0.098,-0.984,192,0,0,0,0,0,0,0,0,0,0
 2023-06-24 15:05:58.716,-67270.34655,34220.00667,6900.050569,29995.37051,23707.48952,-58134.13806,17132.56742,-66004.14258,-0.016,0.098,-0.986,192,255,128,3,16,225,48,0,0,0,0
 2023-06-24 15:05:58.716,-67432.50846,35667.90797,8363.44163,31361.62089,25167.17019,-59423.31963,18598.97597,-66833.86169,-0.016,0.098,-0.986,192,0,0,0,0,0,0,0,0,0,0
 2023-06-24 15:05:58.716,-67215.62948,36630.35174,9307.042874,32356.87701,26109.47503,-59860.47505,19538.97858,-67112.43148,-0.016,0.098,-0.986,192,0,0,0,0,0,0,0,0,0,0
 2023-06-24 15:05:58.716,-66902.14627,35785.83578,8425.802997,31630.66883,25242.16029,-58842.66601,18675.68716,-66452.02684,-0.016,0.098,-0.986,192,0,0,0,0,0,0,0,0,0,0
 2023-06-24 15:05:58.716,-66936.74677,34169.04469,6809.682466,30048.5006,23635.13692,-57704.67165,17061.91356,-65713.36874,-0.016,0.098,-0.986,192,0,0,0,0,0,0,0,0,0,0
 2023-06-24 15:05:58.716,-67250.27469,34217.25741,6893.590914,29991.16838,23705.65667,-58123.78921,17133.70736,-65986.35059,-0.016,0.098,-0.986,192,0,0,0,0,0,0,0,0,0,0
 2023-06-24 15:05:58.716,-67413.1295,35680.42495,8380.764232,31367.00766,25178.1896,-59409.79682,18600.18296,-66813.43219,-0.016,0.098,-0.986,192,0,0,0,0,0,0,0,0,0,0
 2023-06-24 15:05:58.716,-67206.80055,36612.69386,9291.933094,32340.58259,26089.22435,-59866.06298,19514.99516,-67106.82119,-0.016,0.098,-0.986,192,0,0,0,0,0,0,0,0,0,0
 2023-06-24 15:05:58.716,-66894.45727,35773.13999,8420.304468,31605.61253,25221.61904,-58860.43565,18656.57641,-66456.18426,-0.016,0.098,-0.986,192,0,0,0,0,0,0,0,0,0,0
 2023-06-24 15:05:58.716,-66922.28519,34150.44804,6801.054692,30010.12266,23605.27499,-57710.77367,17047.36257,-65709.97127,-0.016,0.098,-0.986,192,0,0,0,0,0,0,0,0,0,0
 2023-06-24 15:05:58.716,-67231.231,34189.74241,6869.719251,29958.28896,23675.37006,-58115.16143,17108.27108,-65972.82779,-0.016,0.092,-0.988,192,255,128,2,224,225,32,0,0,0,0
 2023-06-24 15:05:58.716,-67395.11399,35649.89247,8350.187045,31332.83184,25145.5784,-59400.20792,18580.53578,-66797.31659,-0.016,0.092,-0.988,192,0,0,0,0,0,0,0,0,0,0
 2023-06-24 15:05:58.716,-67195.95995,36568.07978,9249.46478,32286.22315,26044.23029,-59876.18832,19480.72994,-67102.90964,-0.016,0.092,-0.988,192,0,0,0,0,0,0,0,0,0,0
 2023-06-24 15:05:58.716,-66890.3669,35701.525,8350.052935,31527.38142,25151.47926,-58888.95647,18595.98083,-66465.81786,-0.016,0.092,-0.988,192,0,0,0,0,0,0,0,0,0,0
 2023-06-24 15:05:58.716,-66903.50972,34169.46938,6820.50071,30030.5298,23623.08933,-57717.50155,17057.33145,-65704.94213,-0.016,0.092,-0.988,192,0,0,0,0,0,0,0,0,0,0
 2023-06-24 15:05:58.716,-67206.68879,34221.14661,6901.950467,29997.2257,23702.34861,-58104.36554,17131.87452,-65956.55572,-0.016,0.092,-0.988,192,0,0,0,0,0,0,0,0,0,0
 2023-06-24 15:05:58.716,-67377.65728,35638.40367,8337.04422,31332.00483,25132.7485,-59390.9543,18557.7817,-66783.19028,-0.016,0.092,-0.988,192,0,0,0,0,0,0,0,0,0,0
 2023-06-24 15:05:58.716,-67177.76563,36612.49269,9291.798984,32346.70697,26094.16408,-59875.16014,19513.43054,-67093.87953,-0.016,0.092,-0.988,192,0,0,0,0,0,0,0,0,0,0
 2023-06-24 15:05:58.716,-66858.42626,35856.57905,8501.933038,31701.90384,25312.0989,-58887.23539,18733.30995,-66455.13373,-0.016,0.092,-0.988,192,0,0,0,0,0,0,0,0,0,0
 2023-06-24 15:05:59.193,-66876.03943,34227.4051,6872.803792,30102.50242,23682.52262,-57711.01954,17103.4878,-65692.06753,-0.016,0.092,-0.988,192,0,0,0,0,0,0,0,0,0,0
 2023-06-24 15:05:59.193,-67183.8453,34233.99886,6911.964048,30007.79808,23715.15616,-58085.63478,17144.01151,-65935.99211,-0.018,0.092,-0.988,192,255,112,2,224,225,32,0,0,0,0
 2023-06-24 15:05:59.193,-67363.46392,35611.31336,8306.779958,31307.84259,25109.12271,-59376.62683,18536.86047,-66766.6947,-0.018,0.092,-0.988,192,0,0,0,0,0,0,0,0,0,0
 2023-06-24 15:05:59.193,-67173.63056,36548.87963,9227.694181,32276.12016,26024.65016,-59880.03282,19452.29852,-67090.2362,-0.018,0.092,-0.988,192,0,0,0,0,0,0,0,0,0,0
 2023-06-24 15:05:59.193,-66859.47679,35764.3781,8411.006142,31602.75151,25214.57824,-58911.39763,18656.24114,-66464.00737,-0.018,0.092,-0.988,192,0,0,0,0,0,0,0,0,0,0
 2023-06-24 15:05:59.193,-66868.05986,34155.49954,6803.759253,30034.59782,23615.82501,-57722.39658,17051.09531,-65689.36297,-0.018,0.092,-0.988,192,0,0,0,0,0,0,0,0,0,0
 2023-06-24 15:05:59.193,-67172.33416,34160.7522,6839.678507,29944.96732,23648.9503,-58079.19748,17070.7425,-65919.7871,-0.018,0.092,-0.988,192,0,0,0,0,0,0,0,0,0,0
 2023-06-24 15:05:59.193,-67357.29484,35527.76254,8225.911346,31229.1421,25028.85759,-59370.81538,18444.03368,-66749.81913,-0.018,0.092,-0.988,192,0,0,0,0,0,0,0,0,0,0
 2023-06-24 15:05:59.193,-67163.39346,36530.90883,9208.538736,32263.8267,26013.36253,-59884.14554,19436.49583,-67078.63564,-0.018,0.092,-0.988,192,0,0,0,0,0,0,0,0,0,0
 2023-06-24 15:05:59.193,-66838.10852,35836.50718,8481.816468,31673.78535,25289.83656,-58920.89712,18718.93778,-66454.88786,-0.018,0.092,-0.988,192,0,0,0,0,0,0,0,0,0,0
 2023-06-24 15:05:59.193,-66839.91901,34233.12714,6874.413118,30100.78133,23687.10472,-57718.06034,17128.20883,-65671.50392,-0.018,0.092,-0.988,192,0,0,0,0,0,0,0,0,0,0
 2023-06-24 15:05:59.193,-67143.54511,34229.70733,6900.542307,29998.58916,23710.26113,-58060.04203,17154.718,-65892.8309,-0.014,0.09,-0.988,192,255,144,2,208,225,32,0,0,0,0
 2023-06-24 15:05:59.193,-67323.78958,35631.83226,8326.650658,31316.29155,25124.79128,-59344.55208,18562.78849,-66717.23029,-0.014,0.09,-0.988,192,0,0,0,0,0,0,0,0,0,0
 2023-06-24 15:05:59.193,-67135.87846,36608.0894,9290.770804,32331.86541,26086.11746,-59873.2826,19517.63267,-67056.9321,-0.014,0.09,-0.988,192,0,0,0,0,0,0,0,0,0,0
 2023-06-24 15:05:59.193,-66822.12702,35832.17094,8478.597817,31676.93695,25287.48963,-58932.74354,18725.03981,-66451.46804,-0.014,0.09,-0.988,192,0,0,0,0,0,0,0,0,0,0
 2023-06-24 15:05:59.193,-66821.32236,34211.35655,6857.202274,30098.83673,23673.3584,-57721.50251,17105.92414,-65663.92668,-0.014,0.09,-0.988,192,0,0,0,0,0,0,0,0,0,0
 2023-06-24 15:05:59.193,-67119.87461,34228.45563,6907.605458,30020.40446,23713.92682,-58043.27822,17146.55961,-65872.04377,-0.014,0.09,-0.988,192,0,0,0,0,0,0,0,0,0,0
 2023-06-24 15:05:59.193,-67315.1171,35565.7158,8261.338861,31268.8388,25061.42408,-59334.87378,18494.68273,-66703.43926,-0.014,0.09,-0.988,192,0,0,0,0,0,0,0,0,0,0
 2023-06-24 15:05:59.193,-67126.51308,36606.7483,9284.44526,32341.14138,26082.89881,-59873.64022,19512.75999,-67048.55019,-0.014,0.09,-0.988,192,0,0,0,0,0,0,0,0,0,0
 2023-06-24 15:05:59.193,-66809.85592,35859.46242,8507.766844,31703.78139,25307.80736,-58944.27704,18742.273,-66448.69643,-0.014,0.09,-0.988,192,0,0,0,0,0,0,0,0,0,0
 2023-06-24 15:05:59.193,-66808.71598,34203.7793,6855.704708,30079.94951,23658.22627,-57728.43155,17098.74923,-65657.86936,-0.014,0.09,-0.988,192,0,0,0,0,0,0,0,0,0,0
 2023-06-24 15:05:59.193,-67108.63168,34190.14474,6869.540437,29972.10234,23671.50321,-58038.94198,17107.01938,-65856.30815,-0.01,0.094,-0.988,192,255,176,2,240,225,32,0,0,0,0
 2023-06-24 15:05:59.193,-67289.4573,35634.49212,8329.243461,31330.12728,25124.3666,-59314.35487,18556.41825,-66673.7785,-0.01,0.094,-0.988,192,0,0,0,0,0,0,0,0,0,0
 2023-06-24 15:05:59.193,-67107.11176,36635.96203,9312.787272,32364.90129,26110.01147,-59868.70049,19545.30412,-67030.98172,-0.01,0.094,-0.988,192,0,0,0,0,0,0,0,0,0,0
 2023-06-24 15:05:59.193,-66791.28162,35902.62364,8551.039821,31729.99999,25346.7441,-58952.97187,18777.09702,-66441.99091,-0.01,0.094,-0.988,192,0,0,0,0,0,0,0,0,0,0
 2023-06-24 15:05:59.194,-66780.32926,34284.15618,6931.96886,30150.67043,23728.23193,-57722.44128,17167.43614,-65642.69252,-0.01,0.094,-0.988,192,0,0,0,0,0,0,0,0,0,0
 2023-06-24 15:05:59.194,-67085.98937,34197.74433,6874.346062,29978.85257,23674.69951,-58024.18983,17116.9212,-65837.97971,-0.01,0.094,-0.988,192,0,0,0,0,0,0,0,0,0,0
 2023-06-24 15:05:59.194,-67285.32222,35518.10658,8210.019256,31212.15477,25004.53889,-59314.69015,18438.57985,-66665.95538,-0.01,0.094,-0.988,192,0,0,0,0,0,0,0,0,0,0
 2023-06-24 15:05:59.194,-67112.0068,36515.62023,9192.95957,32232.08722,25984.26056,-59889.46526,19408.77967,-67034.64741,-0.01,0.094,-0.988,192,0,0,0,0,0,0,0,0,0,0
 2023-06-24 15:05:59.194,-66787.66063,35858.88128,8507.275105,31672.69011,25298.64315,-58979.6375,18727.34204,-66447.24356,-0.01,0.094,-0.988,192,0,0,0,0,0,0,0,0,0,0
 2023-06-24 15:05:59.194,-66763.94543,34278.54589,6924.03399,30134.57717,23723.02398,-57733.61715,17153.75688,-65635.42821,-0.01,0.094,-0.988,192,0,0,0,0,0,0,0,0,0,0
 2023-06-24 15:05:59.194,-67072.3101,34154.47136,6829.799036,29926.39302,23633.05821,-58019.71948,17060.03601,-65821.86411,-0.02,0.092,-0.992,192,255,96,2,224,225,0,0,0,0,0
 2023-06-24 15:05:59.194,-67265.20565,35537.5973,8229.711143,31226.0352,25030.75749,-59296.58524,18463.18912,-66642.21783,-0.02,0.092,-0.992,192,0,0,0,0,0,0,0,0,0,0
 2023-06-24 15:05:59.194,-67086.01172,36609.72108,9282.590065,32322.27651,26083.4576,-59877.23886,19530.35081,-67015.78254,-0.02,0.092,-0.992,192,0,0,0,0,0,0,0,0,0,0
 2023-06-24 15:05:59.194,-66767.52171,35936.66535,8575.403222,31765.18163,25386.79843,-58987.17004,18817.2631,-66442.08031,-0.02,0.092,-0.992,192,0,0,0,0,0,0,0,0,0,0
 2023-06-24 15:05:59.194,-66762.55962,34211.62477,6849.982661,30081.67059,23662.56251,-57753.4208,17094.18948,-65640.5244,-0.02,0.092,-0.992,192,0,0,0,0,0,0,0,0,0,0
 2023-06-24 15:05:59.194,-67060.91071,34131.06908,6805.860317,29900.17443,23609.32065,-58017.97605,17052.61523,-65812.63284,-0.02,0.092,-0.992,192,0,0,0,0,0,0,0,0,0,0
 2023-06-24 15:05:59.194,-67249.78295,35540.19011,8234.896747,31223.97884,25031.20453,-59286.52695,18461.95977,-66627.0857,-0.02,0.092,-0.992,192,0,0,0,0,0,0,0,0,0,0
 2023-06-24 15:05:59.194,-67071.34897,36642.98047,9322.845557,32368.58933,26118.99687,-59877.55178,19524.76287,-67007.15476,-0.02,0.092,-0.992,192,0,0,0,0,0,0,0,0,0,0
 2023-06-24 15:05:59.194,-66746.64518,36015.72347,8664.966663,31849.29125,25465.9236,-58995.26137,18882.39609,-66437.85583,-0.02,0.092,-0.992,192,0,0,0,0,0,0,0,0,0,0
 2023-06-24 15:05:59.194,-66719.77839,34377.20649,7024.907413,30241.39616,23823.40566,-57738.15456,17264.62153,-65621.68188,-0.02,0.092,-0.992,192,0,0,0,0,0,0,0,0,0,0
 2023-06-24 15:05:59.194,-67020.85638,34243.36424,6919.854214,30015.50943,23718.196,-57992.56211,17155.90264,-65791.0634,-0.022,0.09,-0.99,192,255,80,2,208,225,16,0,0,0,0
 2023-06-24 15:05:59.194,-67220.56922,35591.4203,8285.702263,31284.23915,25086.68156,-59264.06345,18505.34451,-66606.79032,-0.022,0.09,-0.99,192,0,0,0,0,0,0,0,0,0,0
 2023-06-24 15:05:59.194,-67049.2431,36667.79091,9341.777485,32387.63301,26141.88506,-59873.41671,19559.13985,-66996.7612,-0.022,0.09,-0.99,192,0,0,0,0,0,0,0,0,0,0
 2023-06-24 15:05:59.194,-66733.68117,35998.11029,8636.959927,31827.34183,25442.1637,-59013.70156,18861.69837,-66441.16389,-0.022,0.09,-0.99,192,0,0,0,0,0,0,0,0,0,0
 2023-06-24 15:05:59.194,-66700.55588,34371.84207,7011.049332,30241.59732,23816.96836,-57747.11761,17245.35432,-65614.9093,-0.022,0.09,-0.99,192,0,0,0,0,0,0,0,0,0,0
 2023-06-24 15:05:59.194,-67002.10327,34194.99507,6867.327615,29979.2549,23671.50321,-57985.70013,17087.99804,-65771.72914,-0.022,0.09,-0.99,192,0,0,0,0,0,0,0,0,0,0
 2023-06-24 15:05:59.194,-67210.7568,35497.8112,8190.461479,31194.89922,24989.42911,-59260.64363,18395.15041,-66591.72524,-0.022,0.09,-0.99,192,0,0,0,0,0,0,0,0,0,0
 2023-06-24 15:05:59.194,-67053.84756,36518.25774,9197.027588,32229.49442,25987.12158,-59894.18148,19396.79913,-67000.18102,-0.022,0.09,-0.99,192,0,0,0,0,0,0,0,0,0,0
 2023-06-24 15:05:59.194,-66737.61508,35883.24468,8530.118588,31697.18763,25325.48759,-59047.11742,18746.49748,-66455.46901,-0.022,0.09,-0.99,192,0,0,0,0,0,0,0,0,0,0
 2023-06-24 15:05:59.194,-66711.70941,34190.01063,6828.726152,30054.66968,23637.14858,-57782.41101,17063.32172,-65633.68477,-0.022,0.09,-0.99,192,0,0,0,0,0,0,0,0,0,0
 2023-06-24 15:05:59.194,-67008.25,34043.91963,6708.876098,29819.43993,23522.41707,-58000.87696,16956.0557,-65775.84187,-0.018,0.094,-0.986,192,255,112,2,240,225,48,0,0,0,0
 2023-06-24 15:05:59.194,-67207.58286,35426.17386,8110.621048,31122.16665,24920.0493,-59260.15189,18337.77348,-66582.53867,-0.018,0.094,-0.986,192,0,0,0,0,0,0,0,0,0,0
 2023-06-24 15:05:59.194,-67041.97878,36520.3588,9191.350244,32239.61976,25996.95635,-59894.56146,19403.23644,-66990.25684,-0.018,0.094,-0.986,192,0,0,0,0,0,0,0,0,0,0
 2023-06-24 15:05:59.194,-66716.98442,35941.67214,8586.735557,31760.68893,25390.59822,-59049.55376,18802.66742,-66444.76252,-0.018,0.094,-0.986,192,0,0,0,0,0,0,0,0,0,0
 2023-06-24 15:05:59.194,-66685.91549,34235.787,6878.682301,30109.54322,23689.69753,-57775.30316,17106.92997,-65615.91513,-0.018,0.094,-0.986,192,0,0,0,0,0,0,0,0,0,0
 2023-06-24 15:05:59.194,-66982.61255,34060.32581,6734.40179,29842.32811,23538.8009,-57982.12385,16964.12468,-65752.05961,-0.018,0.094,-0.986,192,0,0,0,0,0,0,0,0,0,0
 2023-06-24 15:05:59.194,-67193.92594,35393.02622,8087.598751,31081.70999,24887.9522,-59247.76903,18308.96208,-66563.29382,-0.018,0.094,-0.986,192,0,0,0,0,0,0,0,0,0,0
 2023-06-24 15:05:59.194,-67032.81457,36508.11005,9187.215172,32220.26315,25988.97678,-59897.89187,19393.804,-66981.04793,-0.018,0.094,-0.986,192,0,0,0,0,0,0,0,0,0,0
 2023-06-24 15:05:59.194,-66714.45867,35896.18634,8542.747324,31719.09234,25350.67801,-59072.48665,18757.33808,-66450.52927,-0.018,0.094,-0.986,192,0,0,0,0,0,0,0,0,0,0
 2023-06-24 15:05:59.194,-66679.92522,34193.81043,6836.571614,30068.48306,23651.31958,-57793.27396,17069.87078,-65620.11726,-0.018,0.094,-0.986,192,0,0,0,0,0,0,0,0,0,0
 2023-06-24 15:05:59.194,-66965.58052,34065.91374,6739.587395,29843.42335,23548.4345,-57978.83814,16964.30349,-65740.14613,-0.02,0.092,-0.982,192,255,96,2,224,225,80,0,0,0,0
 2023-06-24 15:05:59.194,-67179.55377,35369.66865,8065.917559,31059.84998,24868.90851,-59236.66021,18281.44709,-66545.7477,-0.02,0.092,-0.982,192,0,0,0,0,0,0,0,0,0,0
 2023-06-24 15:05:59.194,-67020.72227,36488.44051,9173.133573,32201.77826,25969.01667,-59896.03667,19376.30259,-66971.23551,-0.02,0.092,-0.982,192,0,0,0,0,0,0,0,0,0,0
 2023-06-24 15:05:59.194,-66690.67641,35966.32611,8624.018267,31779.86673,25419.7002,-59073.2019,18836.99969,-66441.99091,-0.02,0.092,-0.982,192,0,0,0,0,0,0,0,0,0,0
 2023-06-24 15:05:59.194,-66652.49963,34247.74519,6899.737644,30114.57236,23702.92976,-57787.35075,17126.86773,-65607.1756,-0.02,0.092,-0.982,192,0,0,0,0,0,0,0,0,0,0
 2023-06-24 15:05:59.194,-66942.37941,34075.59205,6755.457134,29850.57591,23554.1342,-57960.30855,16972.35012,-65719.18019,-0.02,0.092,-0.982,192,0,0,0,0,0,0,0,0,0,0
 2023-06-24 15:05:59.194,-67154.40806,35405.52085,8099.869859,31096.79742,24899.61981,-59211.06746,18313.81241,-66520.35612,-0.02,0.092,-0.982,192,0,0,0,0,0,0,0,0,0,0
 2023-06-24 15:05:59.194,-67005.99247,36492.03914,9166.56216,32203.38758,25968.1673,-59893.08624,19378.40365,-66962.56303,-0.02,0.092,-0.982,192,0,0,0,0,0,0,0,0,0,0
 2023-06-24 15:05:59.194,-66672.88443,36016.84106,8657.769401,31835.38846,25468.78463,-59081.58381,18871.06375,-66441.14154,-0.02,0.092,-0.982,192,0,0,0,0,0,0,0,0,0,0
 2023-06-24 15:05:59.194,-66626.57161,34319.38253,6952.331299,30190.23301,23771.16964,-57787.06018,17177.49443,-65600.17951,-0.02,0.092,-0.982,192,0,0,0,0,0,0,0,0,0,0
 2023-06-24 15:05:59.194,-66915.3785,34101.90005,6767.862352,29880.90722,23580.64337,-57945.6458,16995.26066,-65706.28324,-0.02,0.092,-0.982,192,0,0,0,0,0,0,0,0,0,0
 2023-06-24 15:05:59.194,-67136.39255,35386.23129,8074.63474,31082.73817,24887.01342,-59196.65059,18295.28282,-66508.24148,-0.018,0.096,-0.986,192,255,112,3,0,225,48,0,0,0,0
 2023-06-24 15:05:59.194,-66988.75928,36513.36271,9192.244314,32225.71698,25995.30232,-59891.70043,19409.71844,-66956.88569,-0.018,0.096,-0.986,192,0,0,0,0,0,0,0,0,0,0
 2023-06-24 15:05:59.194,-66668.52584,35959.33002,8613.781168,31773.51883,25414.98398,-59107.26596,18835.92681,-66455.9831,-0.018,0.096,-0.986,192,0,0,0,0,0,0,0,0,0,0
 2023-06-24 15:05:59.194,-66613.78641,34301.07645,6951.794857,30178.14072,23758.65266,-57801.90173,17178.4332,-65607.55558,-0.018,0.096,-0.986,192,0,0,0,0,0,0,0,0,0,0
 2023-06-24 15:05:59.194,-66893.6079,34128.40922,6808.07314,29914.94893,23607.48781,-57939.09674,17024.72025,-65697.14137,-0.018,0.096,-0.986,192,0,0,0,0,0,0,0,0,0,0
 2023-06-24 15:05:59.194,-67115.33721,35385.56074,8084.89419,31082.02292,24880.19614,-59184.46889,18295.68515,-66495.56804,-0.018,0.096,-0.986,192,0,0,0,0,0,0,0,0,0,0
 2023-06-24 15:05:59.194,-66968.91093,36537.12261,9220.429864,32240.31266,26016.67059,-59886.1125,19430.23734,-66948.74966,-0.018,0.096,-0.986,192,0,0,0,0,0,0,0,0,0,0
 2023-06-24 15:05:59.194,-66649.23628,36015.11997,8661.435087,31818.93758,25467.95761,-59113.81502,18874.55063,-66454.61964,-0.018,0.096,-0.986,192,0,0,0,0,0,0,0,0,0,0
 2023-06-24 15:05:59.194,-66584.86326,34384.29199,7019.967678,30249.53219,23839.38716,-57796.80554,17252.52923,-65599.03957,-0.018,0.096,-0.986,192,0,0,0,0,0,0,0,0,0,0
 2023-06-24 15:05:59.194,-66875.45829,34100.08956,6766.498895,29884.14823,23584.17494,-57930.73719,17001.20622,-65690.12293,-0.018,0.096,-0.986,192,0,0,0,0,0,0,0,0,0,0
 2023-06-24 15:05:59.194,-67105.0554,35336.74453,8024.812701,31021.5838,24831.29052,-59177.29398,18241.79509,-66489.3766,-0.016,0.09,-0.984,192,255,128,2,208,225,64,0,0,0,0
 2023-06-24 15:05:59.194,-66966.29577,36478.0246,9158.157904,32176.40903,25954.041,-59895.50023,19373.10629,-66953.04119,-0.016,0.09,-0.984,192,0,0,0,0,0,0,0,0,0,0
 2023-06-24 15:05:59.194,-66639.62503,36025.98292,8681.84223,31828.72764,25478.57469,-59129.28243,18903.45143,-66461.36987,-0.016,0.09,-0.984,192,0,0,0,0,0,0,0,0,0,0
 2023-06-24 15:05:59.195,-66575.87785,34367.86346,7015.76555,30241.8879,23821.37165,-57810.66362,17240.14637,-65604.76161,-0.016,0.09,-0.984,192,0,0,0,0,0,0,0,0,0,0
 2023-06-24 15:05:59.195,-66867.07638,34052.34624,6726.377514,29838.14834,23528.72026,-57928.9714,16943.80694,-65688.67006,-0.016,0.09,-0.984,192,0,0,0,0,0,0,0,0,0,0
 2023-06-24 15:05:59.195,-67089.0292,35327.69207,8021.817568,31010.51968,24814.19144,-59161.80422,18224.87482,-66478.75952,-0.016,0.09,-0.984,192,0,0,0,0,0,0,0,0,0,0
 2023-06-24 15:05:59.195,-66952.5718,36469.91092,9153.575796,32169.83761,25940.54055,-59895.29906,19349.92753,-66952.03536,-0.016,0.09,-0.984,192,0,0,0,0,0,0,0,0,0,0
 2023-06-24 15:05:59.195,-66631.98073,35991.47183,8643.732505,31796.38467,25442.83425,-59150.74011,18858.2562,-66476.79257,-0.016,0.09,-0.984,192,0,0,0,0,0,0,0,0,0,0
 2023-06-24 15:05:59.195,-66556.78946,34394.28322,7039.748971,30250.38156,23847.76906,-57819.53726,17262.60987,-65611.08716,-0.016,0.09,-0.984,192,0,0,0,0,0,0,0,0,0,0
 2023-06-24 15:05:59.195,-66835.76159,34121.30137,6798.864221,29903.23662,23601.18462,-57911.6488,17014.79608,-65675.32607,-0.016,0.09,-0.984,192,0,0,0,0,0,0,0,0,0,0
 2023-06-24 15:05:59.195,-67067.57153,35337.30332,8036.97205,31036.76063,24834.37506,-59143.43108,18244.81258,-66465.75081,-0.014,0.094,-0.988,192,255,144,2,240,225,32,0,0,0,0
 2023-06-24 15:05:59.195,-66933.14814,36498.90113,9187.19282,32216.23984,25989.58027,-59884.59258,19401.71652,-66943.07231,-0.014,0.094,-0.988,192,0,0,0,0,0,0,0,0,0,0
 2023-06-24 15:05:59.195,-66611.59594,36044.75838,8704.708064,31854.20863,25505.77676,-59151.54477,18917.086,-66475.58558,-0.014,0.094,-0.988,192,0,0,0,0,0,0,0,0,0,0
 2023-06-24 15:05:59.195,-66533.85657,34434.91869,7085.123013,30303.93634,23894.03717,-57816.40802,17311.96252,-65608.80728,-0.014,0.094,-0.988,192,0,0,0,0,0,0,0,0,0,0
 2023-06-24 15:05:59.195,-66825.25627,34042.2656,6719.582584,29828.31357,23520.98656,-57905.16679,16939.73892,-65676.39895,-0.014,0.094,-0.988,192,0,0,0,0,0,0,0,0,0,0
 2023-06-24 15:05:59.195,-67065.04578,35223.06356,7926.800302,30909.98154,24716.87194,-59137.2173,18136.40662,-66470.77995,-0.014,0.094,-0.988,192,0,0,0,0,0,0,0,0,0,0
 2023-06-24 15:05:59.195,-66931.36,36441.07717,9131.514625,32136.24294,25924.06731,-59888.34767,19340.22687,-66955.83516,-0.014,0.094,-0.988,192,0,0,0,0,0,0,0,0,0,0
 2023-06-24 15:05:59.195,-66603.59402,36043.90902,8703.434015,31845.33499,25502.28989,-59165.51461,18920.17054,-66494.29399,-0.014,0.094,-0.988,192,0,0,0,0,0,0,0,0,0,0
 2023-06-24 15:05:59.195,-66536.49408,34329.61963,6982.304988,30196.96089,23783.95483,-57839.8997,17215.22417,-65635.9423,-0.014,0.094,-0.988,192,0,0,0,0,0,0,0,0,0,0
 2023-06-24 15:05:59.195,-66823.8034,33952.99273,6634.06481,29737.40902,23434.41825,-57909.54774,16868.39215,-65688.67006,-0.014,0.094,-0.988,192,0,0,0,0,0,0,0,0,0,0
 2023-06-24 15:05:59.195,-67056.59682,35193.26868,7896.625447,30890.51317,24692.6203,-59128.76834,18110.12097,-66472.54574,-0.016,0.094,-0.996,192,255,128,2,240,224,224,0,0,0,0
 2023-06-24 15:05:59.195,-66927.40374,36403.41448,9094.567191,32107.23038,25887.92454,-59895.32142,19306.85572,-66966.47459,-0.016,0.094,-0.996,192,0,0,0,0,0,0,0,0,0,0
 2023-06-24 15:05:59.195,-66601.76117,36024.55241,8682.848058,31833.66738,25483.29091,-59189.00629,18896.79061,-66513.94117,-0.016,0.094,-0.996,192,0,0,0,0,0,0,0,0,0,0
 2023-06-24 15:05:59.195,-66525.20645,34358.74395,7009.685875,30232.79074,23808.5641,-57853.44486,17222.53319,-65647.90048,-0.016,0.094,-0.996,192,0,0,0,0,0,0,0,0,0,0
 2023-06-24 15:05:59.195,-66802.74806,34012.51543,6691.844069,29808.55463,23491.86224,-57900.47293,16909.07233,-65684.35617,-0.016,0.094,-0.996,192,0,0,0,0,0,0,0,0,0,0
 2023-06-24 15:05:59.195,-67036.01087,35245.70587,7947.2745,30940.53637,24741.63768,-59112.36216,18164.79333,-66461.39222,-0.016,0.094,-0.996,192,0,0,0,0,0,0,0,0,0,0
