 Timestamp_formatted, EXG Channel 0, EXG Channel 1, EXG Channel 2, EXG Channel 3, EXG Channel 4, EXG Channel 5, EXG Channel 6, EXG Channel 7, Accel Channel 0, Accel Channel 1, Accel Channel 2, Other, Other.1, Other.2, Other.3, Other.4, Other.5, Other.6, Analog Channel 0, Analog Channel 1, Analog Channel 2, Other.7
 2023-06-24 15:07:27.506,-40452.07536,31588.91578,4185.341798,25342.43022,20512.01707,-61645.95475,13027.62485,-54014.93508,-0.024,0.102,-0.986,192,0,0,0,0,0,0,0,0,0,0
 2023-06-24 15:07:27.506,-40266.24295,32500.53167,5079.7245,26279.66121,21404.54458,-62108.50175,13913.08921,-54311.54273,-0.024,0.102,-0.986,192,0,0,0,0,0,0,0,0,0,0
 2023-06-24 15:07:27.506,-40006.91801,31952.39984,4501.261354,25804.28431,20832.85401,-61303.05663,13340.9069,-53830.48848,-0.024,0.102,-0.986,192,0,0,0,0,0,0,0,0,0,0
 2023-06-24 15:07:27.506,-40040.95972,30585.9483,3130.98766,24461.07858,19465.37429,-60242.33225,11983.95484,-53170.26266,-0.024,0.102,-0.986,192,0,0,0,0,0,0,0,0,0,0
 2023-06-24 15:07:27.506,-40309.09125,30498.15065,3068.447479,24310.29371,19399.61545,-60517.14695,11928.43311,-53328.17773,-0.024,0.102,-0.986,192,0,0,0,0,0,0,0,0,0,0
 2023-06-24 15:07:27.506,-40452.29887,31571.14614,4157.379765,25330.24851,20484.68089,-61636.18703,12997.22648,-54010.73295,-0.024,0.102,-0.986,192,0,0,0,0,0,0,0,0,0,0
 2023-06-24 15:07:27.506,-40275.8095,32457.2587,5030.01422,26235.69533,21353.4932,-62120.90696,13862.12723,-54319.11997,-0.022,0.106,-0.986,192,255,80,3,80,225,48,0,0,0,0
 2023-06-24 15:07:27.506,-40009.15319,31989.28022,4535.951261,25830.94994,20860.97251,-61326.48126,13373.51809,-53842.26785,-0.022,0.106,-0.986,192,0,0,0,0,0,0,0,0,0,0
 2023-06-24 15:07:27.506,-40033.42718,30632.30582,3178.619227,24488.83945,19499.68421,-60255.94446,12024.07623,-53173.68247,-0.022,0.106,-0.986,192,0,0,0,0,0,0,0,0,0,0
 2023-06-24 15:07:27.506,-40301.3799,30507.65014,3080.115089,24313.57942,19403.07998,-60513.52596,11912.71984,-53322.0757,-0.022,0.106,-0.986,192,0,0,0,0,0,0,0,0,0,0
 2023-06-24 15:07:27.506,-40448.99082,31572.95663,4162.811239,25329.30974,20483.42919,-61627.13458,12980.50737,-54002.64162,-0.022,0.106,-0.986,192,0,0,0,0,0,0,0,0,0,0
 2023-06-24 15:07:27.506,-40275.206,32487.79118,5065.732308,26257.51063,21381.25406,-62125.15379,13886.28946,-54320.03639,-0.022,0.106,-0.986,192,0,0,0,0,0,0,0,0,0,0
 2023-06-24 15:07:27.506,-40018.20564,31963.3969,4513.890089,25806.38537,20837.57023,-61354.59976,13344.86316,-53862.49618,-0.022,0.106,-0.986,192,0,0,0,0,0,0,0,0,0,0
 2023-06-24 15:07:27.506,-40043.2396,30577.76756,3127.746657,24450.90854,19453.75138,-60281.22428,11968.21922,-53195.40837,-0.022,0.106,-0.986,192,0,0,0,0,0,0,0,0,0,0
 2023-06-24 15:07:27.506,-40307.19135,30456.66581,3035.322194,24268.16067,19357.63888,-60519.1139,11878.54402,-53331.35168,-0.022,0.106,-0.986,192,0,0,0,0,0,0,0,0,0,0
 2023-06-24 15:07:27.506,-40450.86836,31552.63889,4147.053259,25306.06393,20469.14643,-61624.07239,12976.14878,-54002.95454,-0.022,0.106,-0.986,192,0,0,0,0,0,0,0,0,0,0
 2023-06-24 15:07:27.506,-40283.02911,32433.14116,5015.172662,26191.95297,21330.69442,-62142.90108,13840.46839,-54333.69331,-0.018,0.106,-0.992,192,255,112,3,80,225,0,0,0,0,0
 2023-06-24 15:07:27.506,-40011.56718,32007.04986,4562.59454,25839.13068,20885.47002,-61377.35383,13394.19346,-53878.81295,-0.018,0.106,-0.992,192,0,0,0,0,0,0,0,0,0,0
 2023-06-24 15:07:27.506,-40021.62546,30663.5312,3210.738684,24538.7956,19547.69576,-60287.66159,12061.22483,-53201.44334,-0.018,0.106,-0.992,192,0,0,0,0,0,0,0,0,0,0
 2023-06-24 15:07:27.506,-40277.7988,30536.97563,3107.473625,24352.4044,19443.91661,-60501.99246,11957.42332,-53321.67337,-0.018,0.106,-0.992,192,0,0,0,0,0,0,0,0,0,0
 2023-06-24 15:07:27.506,-40431.89173,31547.76621,4139.185445,25297.16793,20458.28348,-61611.28719,12978.20514,-53997.14309,-0.018,0.106,-0.992,192,0,0,0,0,0,0,0,0,0,0
 2023-06-24 15:07:27.506,-40269.77453,32413.73985,4995.905458,26178.56427,21309.46026,-62151.08182,13831.28182,-54340.71175,-0.018,0.106,-0.992,192,0,0,0,0,0,0,0,0,0,0
 2023-06-24 15:07:27.506,-39999.60899,31980.42893,4534.967784,25830.97229,20866.56044,-61407.19341,13374.65803,-53900.13652,-0.018,0.106,-0.992,192,0,0,0,0,0,0,0,0,0,0
 2023-06-24 15:07:27.506,-40010.06961,30586.77531,3139.771895,24468.54406,19477.48893,-60318.95403,11979.95388,-53224.33152,-0.018,0.106,-0.992,192,0,0,0,0,0,0,0,0,0,0
 2023-06-24 15:07:27.506,-40268.47813,30398.17129,2977.833507,24210.35906,19305.80518,-60521.84081,11812.24874,-53338.0572,-0.018,0.106,-0.992,192,0,0,0,0,0,0,0,0,0,0
 2023-06-24 15:07:27.506,-40406.18723,31516.74199,4112.341,25267.14954,20435.35059,-61611.24249,12948.23145,-53997.8807,-0.018,0.106,-0.992,192,0,0,0,0,0,0,0,0,0,0
 2023-06-24 15:07:27.507,-40235.73282,32462.91369,5045.816904,26237.10349,21367.12776,-62155.9992,13867.29048,-54341.62817,-0.014,0.102,-0.99,192,255,144,3,48,225,16,0,0,0,0
 2023-06-24 15:07:27.507,-39974.6868,31966.03441,4526.027086,25812.21918,20850.51189,-61436.20598,13355.81551,-53917.57088,-0.014,0.102,-0.99,192,0,0,0,0,0,0,0,0,0,0
 2023-06-24 15:07:27.507,-39970.97641,30652.31063,3212.124492,24528.73731,19542.17488,-60330.86751,12051.9265,-53229.38302,-0.014,0.102,-0.99,192,0,0,0,0,0,0,0,0,0,0
 2023-06-24 15:07:27.507,-40239.15264,30379.21701,2963.349576,24193.39409,19286.49328,-60520.49971,11795.70845,-53336.38082,-0.014,0.102,-0.99,192,0,0,0,0,0,0,0,0,0,0
 2023-06-24 15:07:27.507,-40391.81505,31439.60612,4040.5919,25182.90581,20354.7502,-61611.28719,12871.2744,-53998.28303,-0.014,0.102,-0.99,192,0,0,0,0,0,0,0,0,0,0
 2023-06-24 15:07:27.507,-40224.42284,32430.30249,5010.545851,26201.07248,21339.72452,-62167.4433,13853.36534,-54349.56304,-0.014,0.102,-0.99,192,0,0,0,0,0,0,0,0,0,0
 2023-06-24 15:07:27.507,-39948.78113,32071.80286,4621.424332,25918.47937,20961.75652,-61447.3595,13477.47606,-53923.06941,-0.014,0.102,-0.99,192,0,0,0,0,0,0,0,0,0,0
 2023-06-24 15:07:27.507,-39957.4536,30628.43896,3176.808736,24520.06483,19516.15745,-60347.34074,12032.704,-53241.9,-0.014,0.102,-0.99,192,0,0,0,0,0,0,0,0,0,0
 2023-06-24 15:07:27.507,-40220.57834,30381.47454,2954.833562,24217.80219,19294.76342,-60514.93412,11811.39938,-53336.53728,-0.014,0.102,-0.99,192,0,0,0,0,0,0,0,0,0,0
 2023-06-24 15:07:27.507,-40369.35155,31474.69836,4065.223523,25239.00869,20402.58293,-61593.38344,12916.1567,-53989.49879,-0.014,0.102,-0.99,192,0,0,0,0,0,0,0,0,0,0
 2023-06-24 15:07:27.507,-40207.59198,32452.54248,5034.2387,26229.41449,21367.39598,-62168.60559,13871.09028,-54352.60288,-0.014,0.098,-0.994,192,255,144,3,16,224,240,0,0,0,0
 2023-06-24 15:07:27.507,-39947.7753,32007.98863,4562.639244,25853.88283,20899.21634,-61481.28944,13395.84749,-53947.52222,-0.014,0.098,-0.994,192,0,0,0,0,0,0,0,0,0,0
 2023-06-24 15:07:27.507,-39950.03282,30614.60324,3162.816544,24494.74031,19505.11569,-60371.7712,12004.51845,-53258.75321,-0.014,0.098,-0.994,192,0,0,0,0,0,0,0,0,0,0
 2023-06-24 15:07:27.507,-40203.34514,30420.23247,2996.050179,24237.13645,19330.32505,-60511.80488,11844.77053,-53333.20687,-0.014,0.098,-0.994,192,0,0,0,0,0,0,0,0,0,0
 2023-06-24 15:07:27.507,-40352.87831,31505.02968,4099.26523,25252.91148,20424.91232,-61580.82176,12943.51523,-53979.66403,-0.014,0.098,-0.994,192,0,0,0,0,0,0,0,0,0,0
 2023-06-24 15:07:27.507,-40197.35488,32480.25864,5060.971387,26244.50192,21385.76912,-62172.74066,13903.61207,-54352.20055,-0.014,0.098,-0.994,192,0,0,0,0,0,0,0,0,0,0
 2023-06-24 15:07:27.507,-39931.86086,32100.34604,4657.522399,25938.32772,20987.7516,-61495.4381,13492.1388,-53953.11015,-0.014,0.098,-0.994,192,0,0,0,0,0,0,0,0,0,0
 2023-06-24 15:07:27.507,-39932.77728,30682.86546,3238.164274,24557.86163,19572.48385,-60382.20947,12079.5309,-53264.3635,-0.014,0.098,-0.994,192,0,0,0,0,0,0,0,0,0,0
 2023-06-24 15:07:27.507,-40195.29852,30381.34043,2961.181457,24203.58648,19296.64097,-60514.24122,11812.65108,-53337.31959,-0.014,0.098,-0.994,192,0,0,0,0,0,0,0,0,0,0
 2023-06-24 15:07:27.507,-40360.41085,31386.27486,3987.573563,25145.28783,20313.44417,-61583.70514,12827.39792,-53985.1402,-0.014,0.098,-0.994,192,0,0,0,0,0,0,0,0,0,0
 2023-06-24 15:07:27.507,-40203.21103,32421.38415,5012.624563,26189.96366,21334.60597,-62183.4695,13846.95039,-54361.23065,-0.018,0.1,-0.992,192,255,112,3,32,225,0,0,0,0,0
 2023-06-24 15:07:27.507,-39927.994,32139.10397,4704.483414,25983.25473,21039.04886,-61514.45943,13555.64011,-53963.52607,-0.018,0.1,-0.992,192,0,0,0,0,0,0,0,0,0,0
 2023-06-24 15:07:27.507,-39911.40901,30810.7845,3371.313616,24683.0314,19705.83435,-60384.71286,12228.03589,-53259.84845,-0.018,0.1,-0.992,192,0,0,0,0,0,0,0,0,0,0
 2023-06-24 15:07:27.507,-40171.27039,30475.35187,3057.584531,24303.78935,19393.04404,-60499.15379,11910.05998,-53319.28174,-0.018,0.1,-0.992,192,0,0,0,0,0,0,0,0,0,0
 2023-06-24 15:07:27.507,-40338.95318,31447.60805,4049.286729,25213.28184,20379.91826,-61562.96272,12903.12563,-53962.98962,-0.018,0.1,-0.992,192,0,0,0,0,0,0,0,0,0,0
 2023-06-24 15:07:27.507,-40184.56968,32501.5375,5094.744872,26263.43385,21419.98964,-62174.86407,13940.53715,-54348.49016,-0.018,0.1,-0.992,192,0,0,0,0,0,0,0,0,0,0
 2023-06-24 15:07:27.507,-39926.94347,32131.77259,4695.229792,25964.3228,21028.38707,-61538.06288,13551.1027,-53975.35014,-0.018,0.1,-0.992,192,0,0,0,0,0,0,0,0,0,0
 2023-06-24 15:07:27.507,-39922.71899,30709.10641,3265.880438,24582.31444,19605.29621,-60417.43582,12129.48705,-53280.83673,-0.018,0.1,-0.992,192,0,0,0,0,0,0,0,0,0,0
 2023-06-24 15:07:27.507,-40180.59107,30379.6864,2957.806344,24206.04518,19299.25612,-60509.81557,11822.97758,-53328.4236,-0.018,0.1,-0.992,192,0,0,0,0,0,0,0,0,0,0
 2023-06-24 15:07:27.507,-40355.00173,31324.47229,3919.668963,25096.51632,20258.77181,-61567.63423,12769.86453,-53969.31517,-0.018,0.1,-0.992,192,0,0,0,0,0,0,0,0,0,0
 2023-06-24 15:07:27.507,-40208.64251,32344.47179,4928.805522,26121.2097,21269.04831,-62197.66285,13772.92142,-54367.17622,-0.02,0.092,-0.988,192,255,96,2,224,225,32,0,0,0,0
 2023-06-24 15:07:27.507,-39936.2865,32103.6094,4665.636082,25931.0187,20999.53097,-61562.87331,13504.58872,-53996.0255,-0.02,0.092,-0.988,192,0,0,0,0,0,0,0,0,0,0
 2023-06-24 15:07:27.507,-39909.08443,30812.63969,3368.854924,24678.96338,19702.16867,-60421.77205,12205.99707,-53287.72107,-0.02,0.092,-0.988,192,0,0,0,0,0,0,0,0,0,0
 2023-06-24 15:07:27.507,-40160.72037,30467.37229,3045.961624,24289.55129,19381.5776,-60495.37635,11883.93079,-53323.41681,-0.02,0.092,-0.988,192,0,0,0,0,0,0,0,0,0,0
 2023-06-24 15:07:27.507,-40346.55277,31326.48394,3919.803073,25092.3589,20256.15665,-61552.92679,12760.32034,-53966.07416,-0.02,0.092,-0.988,192,0,0,0,0,0,0,0,0,0,0
 2023-06-24 15:07:27.507,-40214.3422,32294.04626,4878.5588,26068.7278,21211.9843,-62204.48014,13712.72817,-54377.52508,-0.02,0.092,-0.988,192,0,0,0,0,0,0,0,0,0,0
 2023-06-24 15:07:27.507,-39945.00368,32063.06333,4624.642983,25894.98769,20956.3027,-61592.10939,13471.30698,-54017.61729,-0.02,0.092,-0.988,192,0,0,0,0,0,0,0,0,0,0
 2023-06-24 15:07:27.507,-39918.04748,30733.31335,3288.120423,24611.17054,19625.59159,-60453.39977,12139.81356,-53310.89983,-0.02,0.092,-0.988,192,0,0,0,0,0,0,0,0,0,0
 2023-06-24 15:07:27.507,-40170.42102,30339.9003,2918.109646,24166.6614,19251.17752,-60510.26261,11768.01464,-53338.6607,-0.02,0.092,-0.988,192,0,0,0,0,0,0,0,0,0,0
 2023-06-24 15:07:27.507,-40345.36813,31268.70468,3865.376576,25032.63504,20193.77294,-61550.31163,12717.76262,-53966.76707,-0.02,0.092,-0.988,192,0,0,0,0,0,0,0,0,0,0
 2023-06-24 15:07:27.507,-40206.16146,32319.79547,4906.23026,26084.12815,21233.33022,-62208.68226,13752.08959,-54379.02264,-0.022,0.09,-0.99,192,255,80,2,208,225,16,0,0,0,0
 2023-06-24 15:07:27.507,-39939.57221,32086.68912,4643.552559,25918.07704,20976.39692,-61616.38339,13475.82203,-54033.2188,-0.022,0.09,-0.99,192,0,0,0,0,0,0,0,0,0,0
 2023-06-24 15:07:27.507,-39912.43719,30745.87503,3294.87065,24620.84885,19632.40887,-60475.88563,12142.31695,-53326.30018,-0.022,0.09,-0.99,192,0,0,0,0,0,0,0,0,0,0
 2023-06-24 15:07:27.507,-40155.53476,30409.12365,2981.387434,24228.91101,19319.95384,-60506.75339,11842.91534,-53333.98918,-0.022,0.09,-0.99,192,0,0,0,0,0,0,0,0,0,0
 2023-06-24 15:07:27.507,-40338.34968,31290.72115,3882.967399,25045.88962,20213.73304,-61542.04149,12748.16099,-53960.59799,-0.022,0.09,-0.99,192,0,0,0,0,0,0,0,0,0,0
 2023-06-24 15:07:27.507,-40207.212,32295.70029,4879.96696,26066.67144,21212.5431,-62216.34891,13733.29177,-54385.86228,-0.022,0.09,-0.99,192,0,0,0,0,0,0,0,0,0,0
 2023-06-24 15:07:27.507,-39930.81032,32119.83676,4676.856658,25952.67754,21017.36766,-61634.13067,13535.92587,-54045.15464,-0.022,0.09,-0.99,192,0,0,0,0,0,0,0,0,0,0
 2023-06-24 15:07:27.507,-39899.20496,30771.26661,3319.8599,24640.42898,19659.00745,-60491.82242,12178.28091,-53335.48675,-0.022,0.09,-0.99,192,0,0,0,0,0,0,0,0,0,0
 2023-06-24 15:07:27.507,-40154.75245,30317.25798,2891.622828,24137.35826,19227.93171,-60517.14695,11741.39371,-53341.09704,-0.022,0.09,-0.99,192,0,0,0,0,0,0,0,0,0,0
 2023-06-24 15:07:27.508,-40334.59459,31237.85928,3830.150226,24994.03357,20164.35804,-61541.25917,12677.03774,-53956.90995,-0.022,0.09,-0.99,192,0,0,0,0,0,0,0,0,0,0
 2023-06-24 15:07:27.508,-40202.62989,32295.43207,4878.871724,26053.05923,21208.92211,-62223.12149,13726.31803,-54384.02943,-0.022,0.092,-0.99,192,255,80,2,224,225,16,0,0,0,0
 2023-06-24 15:07:27.508,-39934.05133,32093.59581,4654.817838,25917.92058,20988.66802,-61662.56209,13497.79379,-54058.76685,-0.022,0.092,-0.99,192,0,0,0,0,0,0,0,0,0,0
 2023-06-24 15:07:27.508,-39895.80749,30784.81177,3336.13197,24656.27636,19678.92285,-60513.90594,12188.09333,-53345.098,-0.022,0.092,-0.99,192,0,0,0,0,0,0,0,0,0,0
 2023-06-24 15:07:27.508,-40134.9041,30406.79907,2980.247495,24221.60199,19322.12196,-60507.78157,11837.14859,-53328.84828,-0.022,0.092,-0.99,192,0,0,0,0,0,0,0,0,0,0
 2023-06-24 15:07:27.508,-40315.81912,31297.76195,3894.545602,25037.37361,20219.27628,-61521.29907,12736.78395,-53937.48628,-0.022,0.092,-0.99,192,0,0,0,0,0,0,0,0,0,0
 2023-06-24 15:07:27.508,-40195.20911,32307.05497,4896.686065,26047.44894,21215.24766,-62220.26047,13733.0012,-54375.44636,-0.022,0.092,-0.99,192,0,0,0,0,0,0,0,0,0,0
 2023-06-24 15:07:27.508,-39929.53627,32135.25947,4695.743882,25948.09543,21025.23548,-61678.54359,13536.3282,-54059.86208,-0.022,0.092,-0.99,192,0,0,0,0,0,0,0,0,0,0
 2023-06-24 15:07:27.508,-39887.06796,30832.30923,3380.20961,24690.92157,19713.25513,-60529.41805,12228.95232,-53347.19906,-0.022,0.092,-0.99,192,0,0,0,0,0,0,0,0,0,0
 2023-06-24 15:07:27.508,-40128.26563,30393.92446,2965.897675,24194.28816,19291.00833,-60508.58623,11814.08159,-53325.31671,-0.022,0.092,-0.99,192,0,0,0,0,0,0,0,0,0,0
 2023-06-24 15:07:27.508,-40317.69667,31214.00997,3803.171671,24945.32912,20122.35911,-61521.45553,12654.39542,-53938.24624,-0.022,0.092,-0.99,192,0,0,0,0,0,0,0,0,0,0
 2023-06-24 15:07:27.508,-40200.39471,32233.56244,4815.482177,25970.15661,21143.9903,-62235.79493,13666.79533,-54385.61641,-0.02,0.094,-0.992,192,255,96,2,240,225,0,0,0,0,0
 2023-06-24 15:07:27.508,-39928.6422,32113.17594,4672.431013,25923.53087,21007.59995,-61710.46188,13510.15431,-54079.9116,-0.02,0.094,-0.992,192,0,0,0,0,0,0,0,0,0,0
 2023-06-24 15:07:27.508,-39880.38479,30817.42296,3366.798564,24686.74179,19707.51073,-60559.72702,12211.38384,-53367.5615,-0.02,0.094,-0.992,192,0,0,0,0,0,0,0,0,0,0
 2023-06-24 15:07:27.508,-40127.28216,30305.88094,2874.769613,24130.67509,19217.80637,-60526.13235,11730.21784,-53337.58781,-0.02,0.094,-0.992,192,0,0,0,0,0,0,0,0,0,0
 2023-06-24 15:07:27.508,-40305.15734,31204.66694,3793.336903,24956.5497,20129.33286,-61519.33211,12650.90855,-53931.38426,-0.02,0.094,-0.992,192,0,0,0,0,0,0,0,0,0,0
 2023-06-24 15:07:27.508,-40186.0896,32250.9968,4831.798951,26007.77459,21171.99703,-62238.99123,13697.88661,-54380.74373,-0.02,0.094,-0.992,192,0,0,0,0,0,0,0,0,0,0
 2023-06-24 15:07:27.508,-39914.44885,32157.96884,4716.352191,25979.38788,21059.76892,-61726.44338,13569.5876,-54084.449,-0.02,0.094,-0.992,192,0,0,0,0,0,0,0,0,0,0
 2023-06-24 15:07:27.508,-39867.59959,30847.9778,3400.125015,24712.35689,19740.81483,-60580.35768,12250.94643,-53375.45167,-0.02,0.094,-0.992,192,0,0,0,0,0,0,0,0,0,0
 2023-06-24 15:07:27.508,-40103.99164,30367.48235,2944.931739,24191.38243,19287.23088,-60517.54928,11791.72984,-53326.27783,-0.02,0.094,-0.992,192,0,0,0,0,0,0,0,0,0,0
 2023-06-24 15:07:27.508,-40293.10975,31166.04312,3761.463316,24921.45746,20097.79454,-61507.68685,12605.84743,-53923.49409,-0.02,0.094,-0.992,192,0,0,0,0,0,0,0,0,0,0
 2023-06-24 15:07:27.508,-40170.97982,32257.74703,4847.333413,26012.13318,21182.56941,-62232.64333,13690.62229,-54377.838,-0.02,0.096,-0.988,192,255,96,3,0,225,32,0,0,0,0
 2023-06-24 15:07:27.508,-39895.65103,32191.29529,4752.9867,26018.41402,21100.47145,-61738.33451,13602.39996,-54092.7862,-0.02,0.096,-0.988,192,0,0,0,0,0,0,0,0,0,0
 2023-06-24 15:07:27.508,-39846.79012,30873.88347,3420.196881,24748.87964,19772.19668,-60598.5073,12288.78794,-53388.30392,-0.02,0.096,-0.988,192,0,0,0,0,0,0,0,0,0,0
 2023-06-24 15:07:27.508,-40078.33184,30384.06734,2953.872437,24203.09475,19299.0326,-60517.39282,11818.68605,-53327.70834,-0.02,0.096,-0.988,192,0,0,0,0,0,0,0,0,0,0
 2023-06-24 15:07:27.508,-40269.10398,31163.53973,3755.62951,24924.4973,20095.64878,-61498.34383,12604.32751,-53920.74483,-0.02,0.096,-0.988,192,0,0,0,0,0,0,0,0,0,0
 2023-06-24 15:07:27.508,-40153.25488,32238.77039,4823.014715,26001.91844,21167.19141,-62237.18074,13672.69619,-54383.51534,-0.02,0.096,-0.988,192,0,0,0,0,0,0,0,0,0,0
 2023-06-24 15:07:27.508,-39880.5636,32167.7589,4726.008144,25983.63471,21069.00019,-61765.29071,13581.1211,-54111.85224,-0.02,0.096,-0.988,192,0,0,0,0,0,0,0,0,0,0
 2023-06-24 15:07:27.508,-39820.75033,30894.51413,3441.676908,24753.5288,19784.15487,-60621.64135,12308.8598,-53405.17949,-0.02,0.096,-0.988,192,0,0,0,0,0,0,0,0,0,0
 2023-06-24 15:07:27.508,-40049.31927,30382.48037,2954.140658,24206.11223,19297.33387,-60521.50554,11819.11073,-53333.29628,-0.02,0.096,-0.988,192,0,0,0,0,0,0,0,0,0,0
 2023-06-24 15:07:27.508,-40241.09724,31137.29878,3727.17574,24896.15529,20062.0094,-61492.68883,12580.16528,-53917.90616,-0.02,0.096,-0.988,192,0,0,0,0,0,0,0,0,0,0
 2023-06-24 15:07:27.508,-40133.67476,32190.51298,4773.10327,25942.10517,21105.61235,-62244.44506,13628.35033,-54386.44342,-0.02,0.094,-0.99,192,255,96,2,240,225,16,0,0,0,0
 2023-06-24 15:07:27.508,-39866.72787,32121.69196,4681.930504,25934.97496,21020.76513,-61791.73282,13546.23002,-54127.14084,-0.02,0.094,-0.99,192,0,0,0,0,0,0,0,0,0,0
 2023-06-24 15:07:27.508,-39798.75622,30904.30419,3455.266768,24767.65511,19794.30256,-60646.69766,12317.73344,-53418.47878,-0.02,0.094,-0.99,192,0,0,0,0,0,0,0,0,0,0
 2023-06-24 15:07:27.508,-40021.60311,30371.41626,2944.462352,24191.42713,19277.97726,-60522.84664,11810.14768,-53332.3128,-0.02,0.094,-0.99,192,0,0,0,0,0,0,0,0,0,0
 2023-06-24 15:07:27.508,-40207.65903,31148.69817,3743.224292,24900.42447,20072.60413,-61478.00374,12604.88631,-53906.3056,-0.02,0.094,-0.99,192,0,0,0,0,0,0,0,0,0,0
 2023-06-24 15:07:27.508,-40097.0626,32213.69174,4802.764035,25968.45787,21132.83677,-62236.15256,13654.63598,-54380.16258,-0.02,0.094,-0.99,192,0,0,0,0,0,0,0,0,0,0
 2023-06-24 15:07:27.508,-39823.03021,32176.40903,4744.314223,25985.84753,21079.48316,-61796.24788,13597.48257,-54126.0009,-0.02,0.094,-0.99,192,0,0,0,0,0,0,0,0,0,0
 2023-06-24 15:07:27.508,-39752.01872,30936.89304,3491.476594,24792.51025,19828.21015,-60656.01834,12347.57302,-53420.0881,-0.02,0.094,-0.99,192,0,0,0,0,0,0,0,0,0,0
 2023-06-24 15:07:27.986,-39976.43023,30365.67186,2943.367117,24187.1803,19276.34558,-60519.29271,11785.3596,-53326.85898,-0.02,0.094,-0.99,192,0,0,0,0,0,0,0,0,0,0
 2023-06-24 15:07:27.986,-40164.56487,31124.37947,3719.151463,24897.76461,20055.05801,-61463.25159,12558.52879,-53892.73809,-0.02,0.094,-0.99,192,0,0,0,0,0,0,0,0,0,0
 2023-06-24 15:07:27.986,-40064.47376,32168.60827,4754.059583,25935.98079,21094.21296,-62234.23031,13612.88293,-54373.23354,-0.02,0.098,-0.988,192,255,96,3,16,225,32,0,0,0,0
 2023-06-24 15:07:27.986,-39784.13818,32227.10278,4790.001189,26044.78908,21127.11473,-61805.63561,13639.79443,-54123.67631,-0.02,0.098,-0.988,192,0,0,0,0,0,0,0,0,0,0
 2023-06-24 15:07:27.986,-39716.94883,30954.77443,3505.491138,24816.15839,19842.55997,-60677.69953,12365.16385,-53427.44183,-0.02,0.098,-0.988,192,0,0,0,0,0,0,0,0,0,0
 2023-06-24 15:07:27.986,-39936.17474,30379.21701,2950.251454,24190.64482,19286.13565,-60520.72323,11809.1642,-53320.89106,-0.02,0.098,-0.988,192,0,0,0,0,0,0,0,0,0,0
 2023-06-24 15:07:27.986,-40121.4707,31119.19387,3707.036818,24878.05037,20043.65862,-61451.15929,12557.3665,-53877.36009,-0.02,0.098,-0.988,192,0,0,0,0,0,0,0,0,0,0
 2023-06-24 15:07:27.986,-40027.59338,32110.33727,4692.368769,25877.35216,21031.31515,-62234.61029,13542.94432,-54366.79624,-0.02,0.098,-0.988,192,0,0,0,0,0,0,0,0,0,0
 2023-06-24 15:07:27.986,-39760.043,32086.9797,4649.811047,25906.20827,20985.807,-61833.68705,13497.21265,-54138.9202,-0.02,0.098,-0.988,192,0,0,0,0,0,0,0,0,0,0
 2023-06-24 15:07:27.986,-39678.07915,30921.13506,3472.365853,24780.68617,19811.96044,-60700.07362,12336.15128,-53438.75181,-0.02,0.098,-0.988,192,0,0,0,0,0,0,0,0,0,0
 2023-06-24 15:07:27.986,-39884.81043,30402.52988,2975.598332,24220.64086,19312.55541,-60514.59885,11835.40515,-53313.44793,-0.02,0.098,-0.988,192,0,0,0,0,0,0,0,0,0,0
 2023-06-24 15:07:27.986,-40083.80801,31034.74898,3623.575404,24802.72499,19958.67729,-61443.73851,12471.02171,-53871.54864,-0.02,0.098,-0.988,192,0,0,0,0,0,0,0,0,0,0
 2023-06-24 15:07:27.986,-39992.16586,32038.27525,4622.921899,25802.07149,20954.38045,-62238.70066,13466.16608,-54366.93035,-0.02,0.098,-0.996,192,255,96,3,16,224,224,0,0,0,0
 2023-06-24 15:07:27.986,-39714.19957,32104.07878,4670.039376,25921.3851,21002.70492,-61848.12627,13517.12805,-54143.09998,-0.02,0.098,-0.996,192,0,0,0,0,0,0,0,0,0,0
 2023-06-24 15:07:27.986,-39630.53699,30917.37997,3469.191905,24785.87178,19812.65334,-60720.90545,12325.26598,-53448.31836,-0.02,0.098,-0.996,192,0,0,0,0,0,0,0,0,0,0
 2023-06-24 15:07:27.986,-39846.16427,30296.78378,2867.259427,24118.06871,19205.93759,-60527.54051,11728.16148,-53320.01934,-0.02,0.098,-0.996,192,0,0,0,0,0,0,0,0,0,0
 2023-06-24 15:07:27.986,-40036.69054,30991.90068,3580.794165,24747.53854,19915.53842,-61434.97663,12434.90129,-53862.60794,-0.02,0.098,-0.996,192,0,0,0,0,0,0,0,0,0,0
 2023-06-24 15:07:27.986,-39945.1825,32033.82725,4618.07157,25789.24159,20953.03934,-62234.34207,13473.94448,-54359.08489,-0.02,0.098,-0.996,192,0,0,0,0,0,0,0,0,0,0
 2023-06-24 15:07:27.986,-39670.74778,32130.63265,4693.218135,25941.76989,21035.0926,-61862.6102,13547.48172,-54147.70444,-0.02,0.098,-0.996,192,0,0,0,0,0,0,0,0,0,0
 2023-06-24 15:07:27.986,-39578.21156,30999.8132,3542.505627,24876.99984,19896.87471,-60737.95983,12408.45918,-53455.47091,-0.02,0.098,-0.996,192,0,0,0,0,0,0,0,0,0,0
 2023-06-24 15:07:27.986,-39791.33544,30335.80993,2897.456634,24182.19586,19248.62942,-60528.81456,11771.47916,-53321.06987,-0.02,0.098,-0.996,192,0,0,0,0,0,0,0,0,0,0
 2023-06-24 15:07:27.986,-39981.7723,31014.25243,3602.38595,24783.18957,19939.05246,-61421.63264,12459.04117,-53854.94129,-0.02,0.098,-0.996,192,0,0,0,0,0,0,0,0,0,0
 2023-06-24 15:07:27.986,-39882.23998,32126.25171,4713.625278,25884.2365,21048.81657,-62216.46067,13563.06089,-54345.69619,-0.014,0.098,-0.996,192,255,144,3,16,224,224,0,0,0,0
 2023-06-24 15:07:27.986,-39616.03071,32160.22636,4722.923603,25979.38788,21064.48514,-61869.98628,13565.7431,-54150.07372,-0.014,0.098,-0.996,192,0,0,0,0,0,0,0,0,0,0
 2023-06-24 15:07:27.986,-39525.93082,30996.08046,3546.305424,24867.07567,19890.83974,-60757.53996,12401.99952,-53465.86448,-0.014,0.098,-0.996,192,0,0,0,0,0,0,0,0,0,0
 2023-06-24 15:07:27.986,-39732.41624,30352.48433,2924.077561,24183.20169,19264.02977,-60526.02059,11786.20896,-53315.97368,-0.014,0.098,-0.996,192,0,0,0,0,0,0,0,0,0,0
 2023-06-24 15:07:27.986,-39924.84241,30992.21361,3582.559953,24761.64249,19916.92423,-61408.13218,12427.05583,-53844.99476,-0.014,0.098,-0.996,192,0,0,0,0,0,0,0,0,0,0
 2023-06-24 15:07:27.986,-39836.53067,32040.44337,4622.474864,25801.95973,20959.70016,-62219.14288,13466.94839,-54348.28899,-0.014,0.098,-0.996,192,0,0,0,0,0,0,0,0,0,0
 2023-06-24 15:07:27.986,-39566.52159,32152.02327,4712.172414,25959.89716,21051.18585,-61885.07371,13563.8432,-54159.32735,-0.014,0.098,-0.996,192,0,0,0,0,0,0,0,0,0,0
 2023-06-24 15:07:27.986,-39470.4538,31030.09981,3578.558991,24889.80739,19919.74055,-60775.64487,12431.12384,-53477.53209,-0.014,0.098,-0.996,192,0,0,0,0,0,0,0,0,0,0
 2023-06-24 15:07:27.986,-39667.08209,30400.69704,2968.088146,24224.39596,19305.76048,-60521.63965,11822.77642,-53313.87261,-0.014,0.098,-0.996,192,0,0,0,0,0,0,0,0,0,0
 2023-06-24 15:07:27.986,-39869.16421,30936.24484,3524.825397,24699.77286,19856.12748,-61397.91744,12372.04818,-53842.17845,-0.014,0.098,-0.996,192,0,0,0,0,0,0,0,0,0,0
 2023-06-24 15:07:27.986,-39782.28298,32014.87297,4601.866555,25772.0978,20933.52627,-62212.86204,13446.54124,-54348.40075,-0.016,0.098,-0.994,192,255,128,3,16,224,240,0,0,0,0
 2023-06-24 15:07:27.986,-39507.46828,32186.04263,4753.321976,25992.46365,21088.24504,-61891.3322,13614.78282,-54166.50226,-0.016,0.098,-0.994,192,0,0,0,0,0,0,0,0,0,0
 2023-06-24 15:07:27.986,-39409.94762,31080.05596,3627.375201,24938.42243,19970.25549,-60786.82074,12498.38024,-53487.70213,-0.016,0.098,-0.994,192,0,0,0,0,0,0,0,0,0,0
 2023-06-24 15:07:27.986,-39606.50886,30429.91077,2994.194984,24257.5883,19334.77304,-60515.06823,11849.82203,-53313.7385,-0.016,0.098,-0.994,192,0,0,0,0,0,0,0,0,0,0
 2023-06-24 15:07:27.986,-39800.23143,31025.56241,3614.478244,24803.08262,19951.8153,-61371.29651,12449.78755,-53827.60511,-0.016,0.098,-0.994,192,0,0,0,0,0,0,0,0,0,0
 2023-06-24 15:07:27.986,-39713.03728,32118.27214,4706.763292,25887.96924,21041.99929,-62191.53848,13538.71984,-54336.75549,-0.016,0.098,-0.994,192,0,0,0,0,0,0,0,0,0,0
 2023-06-24 15:07:27.986,-39449.46551,32219.16791,4781.842802,26038.44119,21121.05741,-61895.51197,13609.61957,-54172.24666,-0.016,0.098,-0.994,192,0,0,0,0,0,0,0,0,0,0
 2023-06-24 15:07:27.986,-39350.22376,31101.13366,3648.587006,24960.14833,19984.35944,-60798.68952,12482.64462,-53497.60395,-0.016,0.098,-0.994,192,0,0,0,0,0,0,0,0,0,0
 2023-06-24 15:07:27.986,-39553.1329,30388.51534,2962.656672,24212.03544,19293.2435,-60514.6659,11800.55878,-53316.42071,-0.016,0.098,-0.994,192,0,0,0,0,0,0,0,0,0,0
 2023-06-24 15:07:27.986,-39758.29956,30923.37023,3515.12474,24693.13439,19849.53372,-61364.7251,12354.23384,-53829.23679,-0.016,0.098,-0.994,192,0,0,0,0,0,0,0,0,0,0
 2023-06-24 15:07:27.986,-39684.42704,31989.41433,4579.403052,25746.68387,20909.58755,-62199.38394,13412.49954,-54349.96538,-0.016,0.098,-0.992,192,255,128,3,16,225,0,0,0,0,0
 2023-06-24 15:07:27.986,-39421.97286,32151.37507,4720.95665,25960.18773,21054.69508,-61916.85789,13561.8986,-54194.41959,-0.016,0.098,-0.992,192,0,0,0,0,0,0,0,0,0,0
 2023-06-24 15:07:27.986,-39315.17623,31104.70994,3655.873675,24967.45735,19999.22335,-60818.42611,12518.80974,-53517.69817,-0.016,0.098,-0.992,192,0,0,0,0,0,0,0,0,0,0
 2023-06-24 15:07:27.986,-39511.4916,30406.53085,2974.92778,24239.99748,19314.99175,-60515.00118,11838.08736,-53323.72973,-0.016,0.098,-0.992,192,0,0,0,0,0,0,0,0,0,0
 2023-06-24 15:07:27.986,-39708.2093,30984.52461,3577.91079,24749.37138,19907.87177,-61343.28977,12428.73221,-53820.27374,-0.016,0.098,-0.992,192,0,0,0,0,0,0,0,0,0,0
 2023-06-24 15:07:27.986,-39634.91793,32047.3277,4637.316422,25802.87615,20972.9324,-62181.14491,13482.30403,-54341.60582,-0.016,0.098,-0.992,192,0,0,0,0,0,0,0,0,0,0
 2023-06-24 15:07:27.986,-39377.0235,32195.02803,4761.480363,25999.03506,21101.27611,-61919.31658,13608.88196,-54199.31462,-0.016,0.098,-0.992,192,0,0,0,0,0,0,0,0,0,0
 2023-06-24 15:07:27.986,-39273.53493,31124.7818,3671.788117,24987.10453,20018.82583,-60832.46301,12532.69017,-53533.25499,-0.016,0.098,-0.992,192,0,0,0,0,0,0,0,0,0,0
 2023-06-24 15:07:27.986,-39475.46059,30370.23161,2937.890939,24201.41836,19277.55258,-60517.72809,11794.76968,-53335.33029,-0.016,0.098,-0.992,192,0,0,0,0,0,0,0,0,0,0
 2023-06-24 15:07:27.986,-39682.5495,30884.58996,3479.719577,24652.72244,19809.92643,-61342.44041,12320.08038,-53830.24261,-0.016,0.098,-0.992,192,0,0,0,0,0,0,0,0,0,0
 2023-06-24 15:07:27.987,-39613.50496,31954.97029,4553.36327,25715.01144,20883.03368,-62190.04091,13379.59777,-54356.0227,-0.018,0.1,-0.994,192,255,112,3,32,224,240,0,0,0,0
 2023-06-24 15:07:27.987,-39351.90014,32137.31583,4717.805054,25938.43948,21047.69898,-61942.6965,13554.76839,-54220.74994,-0.018,0.1,-0.994,192,0,0,0,0,0,0,0,0,0,0
 2023-06-24 15:07:27.987,-39239.51557,31108.46503,3670.536419,24960.9977,20003.93957,-60856.26761,12517.37923,-53552.0081,-0.018,0.1,-0.994,192,0,0,0,0,0,0,0,0,0,0
 2023-06-24 15:07:27.987,-39431.33824,30393.43272,2965.249475,24221.0432,19302.74299,-60515.98466,11818.57429,-53335.97849,-0.018,0.1,-0.994,192,0,0,0,0,0,0,0,0,0,0
 2023-06-24 15:07:27.987,-39644.708,30868.98844,3457.121963,24652.8342,19807.22187,-61331.55511,12315.72179,-53826.42047,-0.018,0.1,-0.994,192,0,0,0,0,0,0,0,0,0,0
 2023-06-24 15:07:27.987,-39586.95109,31903.44952,4498.802662,25660.16026,20833.68103,-62190.95733,13331.87679,-54359.46487,-0.018,0.1,-0.994,192,0,0,0,0,0,0,0,0,0,0
 2023-06-24 15:07:27.987,-39327.42498,32139.39454,4720.57667,25927.93416,21043.07217,-61958.00745,13546.29708,-54231.32232,-0.018,0.1,-0.994,192,0,0,0,0,0,0,0,0,0,0
 2023-06-24 15:07:27.987,-39214.43691,31129.58743,3692.977571,24981.62836,20025.82193,-60878.03821,12524.57649,-53568.90602,-0.018,0.1,-0.994,192,0,0,0,0,0,0,0,0,0,0
 2023-06-24 15:07:27.987,-39405.54433,30384.26851,2959.281559,24227.61461,19301.82657,-60521.46083,11806.16907,-53343.17575,-0.018,0.1,-0.994,192,0,0,0,0,0,0,0,0,0,0
 2023-06-24 15:07:27.987,-39610.21925,30918.07287,3514.051856,24695.83895,19854.78638,-61313.5396,12363.57687,-53814.66345,-0.018,0.1,-0.994,192,0,0,0,0,0,0,0,0,0,0
 2023-06-24 15:07:27.987,-39539.81126,32054.03323,4651.263911,25804.28431,20980.50964,-62165.34223,13478.30307,-54339.03537,-0.018,0.098,-0.99,192,255,112,3,16,225,16,0,0,0,0
 2023-06-24 15:07:27.987,-39284.6661,32247.95696,4823.238233,26050.77935,21154.89795,-61951.5478,13654.99361,-54223.52156,-0.018,0.098,-0.99,192,0,0,0,0,0,0,0,0,0,0
 2023-06-24 15:07:27.987,-39174.27083,31196.19563,3755.271882,25054.62915,20090.06084,-60883.33558,12592.95047,-53569.62127,-0.018,0.098,-0.99,192,0,0,0,0,0,0,0,0,0,0
 2023-06-24 15:07:27.987,-39363.25483,30441.44427,3015.943231,24274.68738,19347.64765,-60512.29662,11851.69957,-53336.29141,-0.018,0.098,-0.99,192,0,0,0,0,0,0,0,0,0,0
 2023-06-24 15:07:27.987,-39585.58763,30856.22559,3450.125867,24639.19963,19780.46683,-61307.95167,12284.42935,-53813.50116,-0.018,0.098,-0.99,192,0,0,0,0,0,0,0,0,0,0
 2023-06-24 15:07:27.987,-39527.80837,31949.15884,4547.305947,25708.26122,20874.18239,-62171.91364,13379.66482,-54347.41728,-0.018,0.098,-0.99,192,0,0,0,0,0,0,0,0,0,0
 2023-06-24 15:07:27.987,-39270.15981,32193.9775,4771.806869,25990.56375,21097.18574,-61970.09974,13612.23473,-54238.54193,-0.018,0.098,-0.99,192,0,0,0,0,0,0,0,0,0,0
 2023-06-24 15:07:27.987,-39154.6907,31178.31423,3740.743249,25020.96743,20064.95983,-60904.61444,12583.40628,-53588.35204,-0.018,0.098,-0.99,192,0,0,0,0,0,0,0,0,0,0
 2023-06-24 15:07:27.987,-39337.52797,30427.765,3003.940344,24254.28024,19331.42028,-60513.70478,11848.57033,-53343.68984,-0.018,0.098,-0.99,192,0,0,0,0,0,0,0,0,0,0
 2023-06-24 15:07:27.987,-39545.80153,30924.55488,3523.037258,24705.78548,19849.98075,-61284.14706,12364.40389,-53804.04637,-0.018,0.098,-0.99,192,0,0,0,0,0,0,0,0,0,0
 2023-06-24 15:07:27.987,-39492.20204,31990.33075,4591.741215,25753.18822,20912.38152,-62155.52982,13431.9232,-54343.48337,-0.018,0.098,-0.99,192,0,0,0,0,0,0,0,0,0,0
 2023-06-24 15:07:27.987,-39240.65551,32216.26219,4798.114872,26018.59284,21122.24205,-61971.17263,13641.29199,-54246.45445,-0.022,0.098,-0.99,192,255,80,3,16,225,16,0,0,0,0
 2023-06-24 15:07:27.987,-39128.58386,31191.14413,3757.127077,25045.73316,20088.78679,-60916.68438,12600.63947,-53603.75239,-0.022,0.098,-0.99,192,0,0,0,0,0,0,0,0,0,0
 2023-06-24 15:07:27.987,-39307.33076,30451.18963,3031.723563,24279.60477,19362.82448,-60507.73686,11872.41964,-53348.65193,-0.022,0.098,-0.99,192,0,0,0,0,0,0,0,0,0,0
 2023-06-24 15:07:27.987,-39518.6218,30936.06602,3536.895339,24709.42881,19867.70569,-61265.52805,12367.19786,-53801.52062,-0.022,0.098,-0.99,192,0,0,0,0,0,0,0,0,0,0
 2023-06-24 15:07:27.987,-39475.43823,31953.49508,4556.470162,25717.15721,20885.17945,-62150.50067,13375.86503,-54346.27734,-0.022,0.098,-0.99,192,0,0,0,0,0,0,0,0,0,0
 2023-06-24 15:07:27.987,-39214.10164,32265.92776,4849.747401,26065.62091,21180.06601,-61973.38545,13674.30552,-54247.7285,-0.022,0.098,-0.99,192,0,0,0,0,0,0,0,0,0,0
 2023-06-24 15:07:27.987,-39094.31864,31273.24209,3839.605014,25123.74075,20174.81866,-60922.51818,12682.75978,-53604.84762,-0.022,0.098,-0.99,192,0,0,0,0,0,0,0,0,0,0
 2023-06-24 15:07:27.987,-39276.26184,30484.67254,3063.641854,24315.50167,19403.32584,-60502.97594,11911.44579,-53343.91336,-0.022,0.098,-0.99,192,0,0,0,0,0,0,0,0,0,0
 2023-06-24 15:07:27.987,-39500.69571,30861.54531,3456.965501,24643.49117,19797.87884,-61257.66024,12303.36127,-53798.6149,-0.022,0.098,-0.99,192,0,0,0,0,0,0,0,0,0,0
 2023-06-24 15:07:27.987,-39459.18852,31912.03259,4510.649086,25665.07765,20843.24757,-62145.09155,13354.54146,-54344.60096,-0.022,0.098,-0.99,192,0,0,0,0,0,0,0,0,0,0
 2023-06-24 15:07:27.987,-39201.18233,32221.98423,4799.746549,26010.97089,21129.08168,-61986.2377,13646.92463,-54261.05014,-0.02,0.096,-0.992,192,255,96,3,0,225,0,0,0,0,0
 2023-06-24 15:07:27.987,-39076.59371,31261.8874,3818.66143,25102.12661,20152.95865,-60941.9195,12682.31275,-53626.19354,-0.02,0.096,-0.992,192,0,0,0,0,0,0,0,0,0,0
 2023-06-24 15:07:27.987,-39255.58648,30462.74548,3033.757571,24290.2442,19372.79336,-60507.24512,11893.51969,-53357.50322,-0.02,0.096,-0.992,192,0,0,0,0,0,0,0,0,0,0
 2023-06-24 15:07:27.987,-39480.31091,30830.72225,3424.957803,24602.11809,19763.05482,-61248.02664,12269.49838,-53802.86173,-0.02,0.096,-0.992,192,0,0,0,0,0,0,0,0,0,0
 2023-06-24 15:07:27.987,-39440.07777,31893.32418,4485.682188,25643.57527,20821.67814,-62136.55318,13322.66788,-54349.47364,-0.02,0.096,-0.992,192,0,0,0,0,0,0,0,0,0,0
 2023-06-24 15:07:27.987,-39182.67509,32217.80446,4784.010921,26019.3975,21133.41792,-61990.66335,13638.60978,-54273.54476,-0.02,0.096,-0.992,192,0,0,0,0,0,0,0,0,0,0
 2023-06-24 15:07:27.987,-39058.37703,31249.16926,3796.846127,25100.42788,20148.4883,-60958.43744,12658.21757,-53645.01371,-0.02,0.096,-0.992,192,0,0,0,0,0,0,0,0,0,0
 2023-06-24 15:07:27.987,-39232.56418,30464.69009,3025.733295,24301.10714,19378.24719,-60508.78739,11888.40114,-53367.06976,-0.02,0.096,-0.992,192,0,0,0,0,0,0,0,0,0,0
 2023-06-24 15:07:27.987,-39458.65207,30827.95064,3414.92187,24601.44753,19757.98097,-61235.75553,12259.50715,-53804.60516,-0.02,0.096,-0.992,192,0,0,0,0,0,0,0,0,0,0
 2023-06-24 15:07:27.987,-39429.63951,31841.37873,4430.987469,25596.65896,20771.76669,-62135.27914,13265.15684,-54359.3084,-0.02,0.096,-0.992,192,0,0,0,0,0,0,0,0,0,0
 2023-06-24 15:07:27.987,-39175.92486,32162.21567,4729.696182,25947.08961,21069.91661,-62007.67303,13571.86747,-54293.43781,-0.016,0.096,-0.992,192,255,128,3,0,225,0,0,0,0,0
 2023-06-24 15:07:27.987,-39042.552,31253.52785,3805.451549,25100.91962,20152.53397,-60972.47433,12649.92507,-53660.48111,-0.016,0.096,-0.992,192,0,0,0,0,0,0,0,0,0,0
 2023-06-24 15:07:27.987,-39212.93935,30462.03023,3031.321231,24309.06437,19381.667,-60505.94872,11873.7831,-53371.3166,-0.016,0.096,-0.992,192,0,0,0,0,0,0,0,0,0,0
 2023-06-24 15:07:27.987,-39430.06419,30881.03603,3473.617551,24663.71949,19818.35304,-61214.65548,12315.23005,-53795.77622,-0.016,0.096,-0.992,192,0,0,0,0,0,0,0,0,0,0
 2023-06-24 15:07:27.987,-39396.71539,31959.61946,4555.441982,25701.82391,20894.07544,-62113.0168,13402.06127,-54346.07617,-0.016,0.096,-0.992,192,0,0,0,0,0,0,0,0,0,0
 2023-06-24 15:07:27.987,-39151.27088,32249.49923,4824.422875,26037.9718,21164.46449,-62002.93446,13671.95859,-54292.20847,-0.016,0.096,-0.992,192,0,0,0,0,0,0,0,0,0,0
 2023-06-24 15:07:27.987,-39022.65895,31322.19241,3874.741957,25173.7416,20224.26071,-60977.92816,12727.1727,-53667.83484,-0.016,0.096,-0.992,192,0,0,0,0,0,0,0,0,0,0
 2023-06-24 15:07:27.988,-39195.70615,30514.06509,3079.958627,24359.64636,19437.43461,-60496.98567,11940.21248,-53370.78015,-0.016,0.096,-0.992,192,0,0,0,0,0,0,0,0,0,0
 2023-06-24 15:07:27.988,-39426.33145,30843.08277,3436.647765,24628.96253,19782.90317,-61202.45143,12284.63051,-53795.06097,-0.016,0.096,-0.992,192,0,0,0,0,0,0,0,0,0,0
 2023-06-24 15:07:27.988,-39400.24697,31898.37568,4501.462519,25646.61511,20837.65964,-62106.64655,13346.83011,-54349.27247,-0.016,0.096,-0.992,192,0,0,0,0,0,0,0,0,0,0
 2023-06-24 15:07:27.988,-39151.47205,32241.16203,4825.182834,26033.74732,21163.52572,-62005.88489,13662.63791,-54298.33285,-0.018,0.096,-0.992,192,255,112,3,0,225,0,0,0,0,0
 2023-06-24 15:07:27.988,-39022.25662,31309.54132,3872.238561,25163.81743,20216.92934,-60989.52871,12717.24853,-53680.59768,-0.018,0.096,-0.992,192,0,0,0,0,0,0,0,0,0,0
 2023-06-24 15:07:27.988,-39200.15415,30444.57352,3020.637097,24285.32681,19363.67385,-60504.09353,11864.93181,-53381.97838,-0.018,0.096,-0.992,192,0,0,0,0,0,0,0,0,0,0
 2023-06-24 15:07:27.988,-39425.7056,30827.03421,3425.851873,24614.97034,19765.26764,-61190.96264,12264.46924,-53793.63046,-0.018,0.096,-0.992,192,0,0,0,0,0,0,0,0,0,0
 2023-06-24 15:07:27.988,-39413.09922,31822.17858,4419.610431,25593.70853,20761.35078,-62107.58532,13252.43869,-54355.70977,-0.018,0.096,-0.992,192,0,0,0,0,0,0,0,0,0,0
 2023-06-24 15:07:27.988,-39162.78203,32187.45079,4761.726232,26000.06324,21106.30525,-62023.22984,13618.15794,-54312.81678,-0.018,0.096,-0.992,192,0,0,0,0,0,0,0,0,0,0
 2023-06-24 15:07:27.988,-39023.30715,31313.56464,3870.159849,25173.67454,20216.3482,-61007.72303,12739.28735,-53693.78521,-0.018,0.096,-0.992,192,0,0,0,0,0,0,0,0,0,0
 2023-06-24 15:07:27.988,-39192.35339,30490.21578,3060.043223,24337.31697,19409.87491,-60499.1985,11923.89571,-53381.01725,-0.018,0.096,-0.992,192,0,0,0,0,0,0,0,0,0,0
 2023-06-24 15:07:27.988,-39414.50738,30886.75808,3479.563115,24680.25979,19825.57265,-61168.83441,12327.36705,-53782.36518,-0.018,0.096,-0.992,192,0,0,0,0,0,0,0,0,0,0
 2023-06-24 15:07:27.988,-39405.76785,31889.43498,4493.125319,25649.31967,20824.76268,-62086.64174,13317.37051,-54345.04799,-0.018,0.096,-0.992,192,0,0,0,0,0,0,0,0,0,0
 2023-06-24 15:07:27.988,-39164.03373,32214.67521,4798.584258,26001.22553,21128.76876,-62020.19,13631.72545,-54315.49899,-0.022,0.094,-0.99,192,255,80,2,240,225,16,0,0,0,0
 2023-06-24 15:07:27.988,-39021.29549,31348.41101,3910.303582,25193.85817,20254.145,-61008.75121,12762.04142,-53703.15059,-0.022,0.094,-0.99,192,0,0,0,0,0,0,0,0,0,0
 2023-06-24 15:07:27.988,-39184.70909,30551.12428,3124.885634,24386.78138,19469.57641,-60483.79814,11976.19879,-53379.0056,-0.022,0.094,-0.99,192,0,0,0,0,0,0,0,0,0,0
 2023-06-24 15:07:27.988,-39415.62497,30887.13806,3481.9324,24661.75254,19814.86616,-61151.17653,12327.41175,-53777.82777,-0.022,0.094,-0.99,192,0,0,0,0,0,0,0,0,0,0
 2023-06-24 15:07:27.988,-39414.57443,31847.30194,4447.90774,25599.45292,20779.5451,-62079.91386,13287.91091,-54345.38327,-0.022,0.094,-0.99,192,0,0,0,0,0,0,0,0,0,0
 2023-06-24 15:07:27.988,-39171.3651,32182.77927,4765.816601,25987.18864,21100.38204,-62027.70019,13589.5477,-54323.18799,-0.022,0.094,-0.99,192,0,0,0,0,0,0,0,0,0,0
 2023-06-24 15:07:27.988,-39025.85525,31325.99221,3895.462024,25179.73187,20228.46284,-61022.51989,12728.49145,-53714.41587,-0.022,0.094,-0.99,192,0,0,0,0,0,0,0,0,0,0
 2023-06-24 15:07:27.988,-39191.81695,30476.51416,3057.629235,24318.65326,19396.86619,-60487.7097,11909.61294,-53387.74513,-0.022,0.094,-0.99,192,0,0,0,0,0,0,0,0,0,0
 2023-06-24 15:07:28.465,-39422.64341,30800.10036,3398.336875,24580.88393,19732.12001,-61143.0405,12247.03488,-53782.34283,-0.022,0.094,-0.99,192,0,0,0,0,0,0,0,0,0,0
 2023-06-24 15:07:28.465,-39418.32953,31829.68877,4428.059391,25589.59581,20758.08743,-62068.67094,13263.92749,-54349.38423,-0.022,0.094,-0.99,192,0,0,0,0,0,0,0,0,0,0
 2023-06-24 15:07:28.465,-39186.98897,32134.70067,4710.428978,25936.65134,21050.71647,-62038.60784,13554.16489,-54342.56695,-0.02,0.096,-0.99,192,255,96,3,0,225,16,0,0,0,0
 2023-06-24 15:07:28.465,-39034.95241,31336.87751,3895.372617,25190.70657,20246.00896,-61037.78613,12745.50113,-53734.75596,-0.02,0.096,-0.99,192,0,0,0,0,0,0,0,0,0,0
 2023-06-24 15:07:28.465,-39194.76738,30516.07675,3085.591267,24360.11575,19436.16056,-60483.50757,11938.91608,-53394.36124,-0.02,0.096,-0.99,192,0,0,0,0,0,0,0,0,0,0
 2023-06-24 15:07:28.465,-39432.14291,30817.15474,3407.322277,24595.2114,19749.12968,-61127.57309,12249.15829,-53782.0299,-0.02,0.096,-0.99,192,0,0,0,0,0,0,0,0,0,0
 2023-06-24 15:07:28.465,-39443.92227,31775.68695,4369.028433,25526.16155,20708.64537,-62066.86045,13209.85862,-54356.84971,-0.02,0.096,-0.99,192,0,0,0,0,0,0,0,0,0,0
 2023-06-24 15:07:28.465,-39207.57493,32150.70452,4727.975098,25935.17613,21061.91469,-62044.84398,13566.74893,-54351.10531,-0.02,0.096,-0.99,192,0,0,0,0,0,0,0,0,0,0
 2023-06-24 15:07:28.465,-39050.64333,31383.79382,3943.160646,25229.66566,20281.48118,-61047.44208,12780.92865,-53745.14952,-0.02,0.096,-0.99,192,0,0,0,0,0,0,0,0,0,0
 2023-06-24 15:07:28.465,-39215.93448,30521.06118,3091.223906,24358.12644,19430.12559,-60482.85937,11935.65273,-53401.69262,-0.02,0.096,-0.99,192,0,0,0,0,0,0,0,0,0,0
 2023-06-24 15:07:28.466,-39454.98639,30797.9993,3394.447672,24578.42524,19723.20166,-61115.03376,12234.65201,-53784.44389,-0.02,0.096,-0.99,192,0,0,0,0,0,0,0,0,0,0
 2023-06-24 15:07:28.466,-39464.30707,31784.69471,4387.31216,25540.46667,20711.19347,-62050.72249,13220.18513,-54357.25204,-0.02,0.096,-0.99,192,0,0,0,0,0,0,0,0,0,0
 2023-06-24 15:07:28.466,-39227.82561,32185.43913,4766.82243,25974.06816,21094.77175,-62043.77109,13607.13853,-54361.67769,-0.026,0.096,-0.986,192,255,48,3,0,225,48,0,0,0,0
 2023-06-24 15:07:28.466,-39076.86193,31370.1369,3928.967289,25216.74636,20267.91367,-61064.40706,12771.71973,-53766.47309,-0.026,0.096,-0.986,192,0,0,0,0,0,0,0,0,0,0
 2023-06-24 15:07:28.466,-39232.25125,30531.5665,3102.466834,24371.11281,19440.42974,-60481.67473,11944.48166,-53408.5546,-0.026,0.096,-0.986,192,0,0,0,0,0,0,0,0,0,0
 2023-06-24 15:07:28.466,-39472.08547,30780.29672,3371.224209,24567.85286,19706.81783,-61102.60619,12219.7434,-53783.9298,-0.026,0.096,-0.986,192,0,0,0,0,0,0,0,0,0,0
 2023-06-24 15:07:28.466,-39486.50235,31771.55188,4367.799088,25525.4463,20699.27999,-62043.23465,13211.535,-54359.82249,-0.026,0.096,-0.986,192,0,0,0,0,0,0,0,0,0,0
 2023-06-24 15:07:28.466,-39254.02185,32189.17187,4766.040118,25981.51129,21100.35969,-62052.95766,13613.08409,-54373.21119,-0.026,0.096,-0.986,192,0,0,0,0,0,0,0,0,0,0
 2023-06-24 15:07:28.466,-39094.56451,31424.45164,3986.455975,25272.13398,20321.62491,-61078.30984,12841.34541,-53782.25342,-0.026,0.096,-0.986,192,0,0,0,0,0,0,0,0,0,0
 2023-06-24 15:07:28.466,-39249.73032,30567.03872,3143.526988,24410.40717,19478.20419,-60478.61254,12000.76336,-53416.17655,-0.026,0.096,-0.986,192,0,0,0,0,0,0,0,0,0,0
 2023-06-24 15:07:28.466,-39488.53636,30829.73878,3430.612794,24623.19578,19760.61848,-61081.17087,12272.71703,-53780.17471,-0.026,0.096,-0.986,192,0,0,0,0,0,0,0,0,0,0
 2023-06-24 15:07:28.466,-39505.85896,31820.23398,4424.617222,25589.61816,20757.10395,-62022.40283,13262.29581,-54354.56984,-0.026,0.096,-0.986,192,0,0,0,0,0,0,0,0,0,0
 2023-06-24 15:07:28.466,-39283.77203,32198.11257,4779.138241,25998.11864,21112.56374,-62053.56116,13617.04035,-54382.35305,-0.024,0.096,-0.994,192,255,64,3,0,224,240,0,0,0,0
 2023-06-24 15:07:28.466,-39124.51585,31450.93846,4011.981668,25290.30595,20344.60251,-61086.49058,12852.11895,-53796.93851,-0.024,0.096,-0.994,192,0,0,0,0,0,0,0,0,0,0
 2023-06-24 15:07:28.466,-39278.87699,30578.99691,3151.551265,24399.1866,19479.65705,-60470.23064,12000.18221,-53421.3845,-0.024,0.096,-0.994,192,0,0,0,0,0,0,0,0,0,0
 2023-06-24 15:07:28.466,-39519.00178,30839.39473,3434.859626,24607.75073,19760.10439,-61059.1991,12285.32342,-53777.55955,-0.024,0.096,-0.994,192,0,0,0,0,0,0,0,0,0,0
 2023-06-24 15:07:28.466,-39541.24177,31812.165,4409.283925,25565.72414,20740.87658,-62008.45534,13257.22197,-54358.95078,-0.024,0.096,-0.994,192,0,0,0,0,0,0,0,0,0,0
 2023-06-24 15:07:28.466,-39313.83512,32245.31946,4819.460788,26032.58503,21155.16617,-62051.39304,13659.50866,-54392.03136,-0.024,0.096,-0.994,192,0,0,0,0,0,0,0,0,0,0
 2023-06-24 15:07:28.466,-39150.06389,31490.6128,4042.827075,25324.70528,20382.17579,-61093.7549,12903.03623,-53812.92001,-0.024,0.096,-0.994,192,0,0,0,0,0,0,0,0,0,0
 2023-06-24 15:07:28.466,-39303.95565,30564.89296,3125.936166,24395.54326,19469.57641,-60465.78264,11983.19489,-53431.08516,-0.024,0.096,-0.994,192,0,0,0,0,0,0,0,0,0,0
 2023-06-24 15:07:28.466,-39541.21942,30815.23249,3396.884012,24595.2114,19739.22786,-61039.03783,12242.11749,-53778.65479,-0.024,0.096,-0.994,192,0,0,0,0,0,0,0,0,0,0
 2023-06-24 15:07:28.466,-39558.58672,31841.75871,4432.708553,25590.7581,20771.94551,-61982.23674,13276.22095,-54354.34632,-0.024,0.096,-0.994,192,0,0,0,0,0,0,0,0,0,0
 2023-06-24 15:07:28.466,-39331.11302,32306.22796,4880.34694,26084.66459,21219.87447,-62038.60784,13722.25001,-54394.40064,-0.022,0.102,-0.988,192,255,80,3,48,225,32,0,0,0,0
 2023-06-24 15:07:28.466,-39159.98806,31609.68055,4163.302977,25441.98488,20505.57977,-61087.45171,13010.83869,-53819.11144,-0.022,0.102,-0.988,192,0,0,0,0,0,0,0,0,0,0
 2023-06-24 15:07:28.466,-39313.72336,30646.74504,3209.218765,24481.61983,19553.9766,-60447.07423,12051.9265,-53429.52054,-0.022,0.102,-0.988,192,0,0,0,0,0,0,0,0,0,0
 2023-06-24 15:07:28.466,-39559.63726,30826.72129,3411.59146,24612.06461,19751.99071,-61014.33915,12258.30016,-53773.13391,-0.022,0.102,-0.988,192,0,0,0,0,0,0,0,0,0,0
 2023-06-24 15:07:28.466,-39589.90152,31786.21462,4380.852506,25536.55512,20715.17208,-61970.45737,13221.90621,-54357.58732,-0.022,0.102,-0.988,192,0,0,0,0,0,0,0,0,0,0
 2023-06-24 15:07:28.466,-39359.56679,32294.04626,4874.289617,26068.63839,21203.22242,-62039.56897,13710.11301,-54404.72715,-0.022,0.102,-0.988,192,0,0,0,0,0,0,0,0,0,0
 2023-06-24 15:07:28.466,-39190.29703,31564.88765,4122.868672,25390.64293,20461.30096,-61103.63437,12974.53946,-53839.22801,-0.022,0.102,-0.988,192,0,0,0,0,0,0,0,0,0,0
 2023-06-24 15:07:28.466,-39346.06634,30563.77537,3124.505654,24397.17494,19476.66192,-60453.46683,11991.6662,-53444.85384,-0.022,0.102,-0.988,192,0,0,0,0,0,0,0,0,0,0
 2023-06-24 15:07:28.466,-39590.50501,30791.83022,3376.812145,24572.1891,19718.95483,-61003.29739,12229.44405,-53777.55955,-0.022,0.102,-0.988,192,0,0,0,0,0,0,0,0,0,0
 2023-06-24 15:07:28.466,-39622.2892,31789.99207,4384.518192,25535.50458,20717.45196,-61961.91901,13231.00337,-54362.32589,-0.022,0.102,-0.988,192,0,0,0,0,0,0,0,0,0,0
 2023-06-24 15:07:28.466,-39411.91458,32201.62179,4781.239305,25972.50354,21105.00885,-62061.76425,13622.8071,-54431.28102,-0.022,0.098,-0.984,192,255,80,3,16,225,64,0,0,0,0
 2023-06-24 15:07:28.466,-39247.6069,31452.43602,4008.80772,25267.10484,20334.76774,-61139.30775,12855.02468,-53874.72259,-0.022,0.098,-0.984,192,0,0,0,0,0,0,0,0,0,0
 2023-06-24 15:07:28.466,-39392.42386,30520.34593,3079.73511,24341.11677,19419.03912,-60466.56495,11934.91512,-53462.9364,-0.022,0.098,-0.984,192,0,0,0,0,0,0,0,0,0,0
 2023-06-24 15:07:28.466,-39630.78286,30772.56301,3353.67809,24547.24455,19690.59046,-60998.55882,12200.47619,-53780.97937,-0.022,0.098,-0.984,192,0,0,0,0,0,0,0,0,0,0
 2023-06-24 15:07:28.466,-39674.16759,31709.83871,4296.184098,25461.87794,20633.67762,-61966.76933,13135.40496,-54373.05473,-0.022,0.098,-0.984,192,0,0,0,0,0,0,0,0,0,0
 2023-06-24 15:07:28.466,-39469.06799,32115.63463,4687.227868,25894.4289,21021.81566,-62082.9984,13529.53327,-54452.1352,-0.022,0.098,-0.984,192,0,0,0,0,0,0,0,0,0,0
 2023-06-24 15:07:28.466,-39297.04896,31425.79274,3981.940923,25248.12821,20310.49374,-61164.22995,12839.69138,-53896.96257,-0.022,0.098,-0.984,192,0,0,0,0,0,0,0,0,0,0
 2023-06-24 15:07:28.466,-39434.15456,30534.40518,3097.54945,24357.27708,19427.7116,-60470.63297,11950.49428,-53473.62053,-0.022,0.098,-0.984,192,0,0,0,0,0,0,0,0,0,0
 2023-06-24 15:07:28.466,-39676.7604,30760.33661,3342.613976,24523.95404,19662.89665,-60989.32755,12184.4947,-53787.95311,-0.022,0.098,-0.984,192,0,0,0,0,0,0,0,0,0,0
 2023-06-24 15:07:28.466,-39714.06546,31775.53049,4367.553218,25512.41523,20693.24502,-61950.07258,13202.88488,-54372.7418,-0.022,0.098,-0.984,192,0,0,0,0,0,0,0,0,0,0
 2023-06-24 15:07:28.466,-39498.0135,32278.89178,4858.889265,26048.32066,21192.22536,-62070.32497,13702.96046,-54452.91751,-0.016,0.1,-0.988,192,255,128,3,32,225,32,0,0,0,0
 2023-06-24 15:07:28.466,-39317.59021,31602.57269,4163.124164,25421.62245,20491.72169,-61157.68089,13009.0729,-53900.62826,-0.016,0.1,-0.988,192,0,0,0,0,0,0,0,0,0,0
 2023-06-24 15:07:28.466,-39453.71234,30623.36512,3188.856326,24452.98725,19520.09136,-60456.39491,12033.3969,-53470.60305,-0.016,0.1,-0.988,192,0,0,0,0,0,0,0,0,0,0
 2023-06-24 15:07:28.466,-39700.74382,30793.19367,3377.147421,24570.66918,19712.76339,-60967.02051,12219.85516,-53778.27481,-0.016,0.1,-0.988,192,0,0,0,0,0,0,0,0,0,0
 2023-06-24 15:07:28.466,-39748.75537,31743.41103,4334.360878,25479.46876,20668.52399,-61938.29321,13173.35822,-54371.22188,-0.016,0.1,-0.988,192,0,0,0,0,0,0,0,0,0,0
 2023-06-24 15:07:28.466,-39534.5586,32257.67997,4834.034125,26013.87662,21165.09034,-62077.90221,13674.28317,-54461.83586,-0.016,0.1,-0.988,192,0,0,0,0,0,0,0,0,0,0
 2023-06-24 15:07:28.466,-39350.69315,31601.74568,4153.199989,25406.84794,20489.21829,-61177.10455,13008.11178,-53917.57088,-0.016,0.1,-0.988,192,0,0,0,0,0,0,0,0,0,0
 2023-06-24 15:07:28.466,-39482.50139,30613.70917,3168.851515,24424.04174,19512.06708,-60458.47362,12039.27541,-53480.88485,-0.016,0.1,-0.988,192,0,0,0,0,0,0,0,0,0,0
 2023-06-24 15:07:28.466,-39731.03043,30759.10726,3337.249558,24534.45936,19690.09873,-60955.30819,12199.76094,-53782.00755,-0.016,0.1,-0.988,192,0,0,0,0,0,0,0,0,0,0
 2023-06-24 15:07:28.467,-39778.46083,31720.5899,4305.43772,25480.89927,20661.0138,-61929.39722,13153.37576,-54374.21702,-0.016,0.1,-0.988,192,0,0,0,0,0,0,0,0,0,0
 2023-06-24 15:07:28.467,-39573.98708,32200.23599,4768.610569,25990.16142,21122.42086,-62092.45319,13611.49712,-54479.6502,-0.02,0.098,-0.99,192,255,96,3,16,225,16,0,0,0,0
 2023-06-24 15:07:28.467,-39386.21007,31596.76124,4143.432277,25436.64282,20498.11429,-61196.75174,12991.68324,-53937.68745,-0.02,0.098,-0.99,192,0,0,0,0,0,0,0,0,0,0
 2023-06-24 15:07:28.467,-39516.23017,30588.94343,3140.040116,24432.82597,19497.89607,-60467.92841,12005.32311,-53492.32894,-0.02,0.098,-0.99,192,0,0,0,0,0,0,0,0,0,0
 2023-06-24 15:07:28.467,-39769.63189,30685.74884,3261.499496,24477.03773,19615.73447,-60955.53171,12128.01184,-53788.95894,-0.02,0.098,-0.99,192,0,0,0,0,0,0,0,0,0,0
 2023-06-24 15:07:28.467,-39826.45003,31619.76118,4210.286344,25367.73239,20552.54079,-61935.81217,13064.03584,-54388.0304,-0.02,0.098,-0.99,192,0,0,0,0,0,0,0,0,0,0
 2023-06-24 15:07:28.467,-39609.16872,32196.5256,4768.945845,25970.26837,21113.3237,-62104.18786,13618.64968,-54495.54229,-0.02,0.098,-0.99,192,0,0,0,0,0,0,0,0,0,0
 2023-06-24 15:07:28.467,-39416.98842,31587.08293,4135.542111,25410.156,20481.19402,-61219.41641,12997.67351,-53960.0839,-0.02,0.098,-0.99,192,0,0,0,0,0,0,0,0,0,0
 2023-06-24 15:07:28.467,-39532.81516,30610.40111,3164.247056,24444.6724,19516.55978,-60468.21898,12027.65251,-53501.20258,-0.02,0.098,-0.99,192,0,0,0,0,0,0,0,0,0,0
 2023-06-24 15:07:28.467,-39783.82525,30679.35624,3258.973749,24465.12425,19609.38658,-60939.66197,12129.30824,-53787.10375,-0.02,0.098,-0.99,192,0,0,0,0,0,0,0,0,0,0
 2023-06-24 15:07:28.467,-39841.29159,31619.3812,4209.213461,25374.23675,20557.32406,-61921.19413,13072.61891,-54383.60475,-0.02,0.098,-0.99,192,0,0,0,0,0,0,0,0,0,0
 2023-06-24 15:07:28.467,-39628.54768,32175.42555,4749.879807,25965.5298,21102.41605,-62108.43469,13612.27943,-54501.53255,-0.016,0.098,-0.98,192,255,128,3,16,225,96,0,0,0,0
 2023-06-24 15:07:28.467,-39436.32268,31574.36479,4128.188387,25416.48154,20483.89858,-61236.31432,12998.56758,-53973.15967,-0.016,0.098,-0.98,192,0,0,0,0,0,0,0,0,0,0
 2023-06-24 15:07:28.467,-39542.64993,30645.11337,3206.938887,24484.83848,19561.77736,-60467.57078,12079.55326,-53499.41444,-0.016,0.098,-0.98,192,0,0,0,0,0,0,0,0,0,0
 2023-06-24 15:07:28.467,-39791.24603,30731.65932,3312.93086,24524.0658,19665.62357,-60922.11585,12179.77848,-53774.58677,-0.016,0.098,-0.98,192,0,0,0,0,0,0,0,0,0,0
 2023-06-24 15:07:28.467,-39854.27795,31658.27324,4245.155066,25413.62052,20599.88178,-61903.91623,13120.20577,-54372.31712,-0.016,0.098,-0.98,192,0,0,0,0,0,0,0,0,0,0
 2023-06-24 15:07:28.467,-39647.3902,32204.68398,4775.53961,25980.75133,21131.07099,-62109.41817,13656.96057,-54502.31487,-0.016,0.098,-0.98,192,0,0,0,0,0,0,0,0,0,0
 2023-06-24 15:07:28.467,-39447.4762,31644.05753,4192.494356,25477.03242,20552.33962,-61240.40469,13070.42844,-53977.04887,-0.016,0.098,-0.98,192,0,0,0,0,0,0,0,0,0,0
 2023-06-24 15:07:28.467,-39555.59159,30667.24159,3220.506396,24513.85105,19584.39733,-60461.84873,12098.82046,-53498.878,-0.016,0.098,-0.98,192,0,0,0,0,0,0,0,0,0,0
 2023-06-24 15:07:28.467,-39807.04872,30725.13261,3300.413883,24521.96473,19659.85682,-60905.15088,12165.3616,-53767.92595,-0.016,0.098,-0.98,192,0,0,0,0,0,0,0,0,0,0
 2023-06-24 15:07:28.467,-39876.47323,31650.1372,4237.354307,25414.29107,20593.73505,-61891.39925,13103.30786,-54368.96436,-0.016,0.098,-0.98,192,0,0,0,0,0,0,0,0,0,0
 2023-06-24 15:07:28.467,-39668.93729,32233.09305,4805.490947,26021.65503,21165.78325,-62110.44635,13678.5747,-54505.82409,-0.02,0.092,-0.984,192,255,96,2,224,225,64,0,0,0,0
 2023-06-24 15:07:28.467,-39473.94067,31631.94288,4184.671245,25466.08007,20538.66035,-61259.04605,13045.79682,-53990.41521,-0.02,0.092,-0.984,192,0,0,0,0,0,0,0,0,0,0
 2023-06-24 15:07:28.467,-39583.57597,30593.21262,3154.166419,24434.59176,19504.02045,-60474.25395,12008.22884,-53509.62919,-0.02,0.092,-0.984,192,0,0,0,0,0,0,0,0,0,0
 2023-06-24 15:07:28.467,-39828.34993,30670.34849,3255.486876,24456.78704,19599.64122,-60897.6854,12114.22081,-53766.09311,-0.02,0.092,-0.984,192,0,0,0,0,0,0,0,0,0,0
 2023-06-24 15:07:28.467,-39898.37794,31604.98668,4197.16587,25351.50502,20541.00729,-61883.15146,13065.444,-54365.81276,-0.02,0.092,-0.984,192,0,0,0,0,0,0,0,0,0,0
 2023-06-24 15:07:28.467,-39699.49212,32161.74628,4736.20054,25939.49001,21086.47926,-62122.96332,13601.90822,-54515.70356,-0.02,0.092,-0.984,192,0,0,0,0,0,0,0,0,0,0
 2023-06-24 15:07:28.467,-39501.61213,31597.11887,4153.915245,25419.65549,20499.25423,-61282.1354,13029.61415,-54006.62023,-0.02,0.092,-0.984,192,0,0,0,0,0,0,0,0,0,0
 2023-06-24 15:07:28.467,-39598.7081,30644.15224,3207.318867,24466.80063,19550.44503,-60475.90798,12076.11109,-53508.04222,-0.02,0.092,-0.984,192,0,0,0,0,0,0,0,0,0,0
 2023-06-24 15:07:28.467,-39852.51216,30670.70611,3256.448001,24446.46054,19597.94248,-60890.6446,12121.35102,-53756.30304,-0.02,0.092,-0.984,192,0,0,0,0,0,0,0,0,0,0
 2023-06-24 15:07:28.467,-39927.65873,31614.50852,4207.648838,25364.11141,20556.47469,-61875.01542,13078.36331,-54351.48529,-0.02,0.092,-0.984,192,0,0,0,0,0,0,0,0,0,0
 2023-06-24 15:07:28.467,-39732.55035,32174.39737,4747.085839,25962.28879,21106.17114,-62130.83114,13615.67689,-54512.26139,-0.016,0.096,-0.99,192,255,128,3,0,225,16,0,0,0,0
 2023-06-24 15:07:28.467,-39533.28455,31615.5367,4173.294207,25446.90227,20523.19294,-61299.03332,13037.86195,-54009.99534,-0.016,0.096,-0.99,192,0,0,0,0,0,0,0,0,0,0
 2023-06-24 15:07:28.467,-39632.571,30617.17369,3181.480251,24448.71806,19529.30028,-60480.78066,12056.84388,-53506.16467,-0.016,0.096,-0.99,192,0,0,0,0,0,0,0,0,0,0
 2023-06-24 15:07:28.467,-39888.9008,30619.23005,3207.296515,24392.25756,19548.791,-60881.86036,12073.47358,-53749.19519,-0.016,0.096,-0.99,192,0,0,0,0,0,0,0,0,0,0
 2023-06-24 15:07:28.467,-39966.05903,31575.77295,4175.462326,25321.24076,20514.34165,-61866.92409,13023.04274,-54347.35022,-0.016,0.096,-0.99,192,0,0,0,0,0,0,0,0,0,0
 2023-06-24 15:07:28.467,-39769.6766,32196.86087,4780.367587,25963.51814,21117.83875,-62134.47447,13629.11029,-54513.24487,-0.016,0.096,-0.99,192,0,0,0,0,0,0,0,0,0,0
 2023-06-24 15:07:28.467,-39569.62849,31653.37821,4215.293135,25469.99162,20553.90424,-61315.97594,13076.46341,-54019.22661,-0.016,0.096,-0.99,192,0,0,0,0,0,0,0,0,0,0
 2023-06-24 15:07:28.467,-39665.20454,30645.64981,3213.063265,24459.37985,19546.64523,-60487.93322,12074.61352,-53510.54561,-0.016,0.096,-0.99,192,0,0,0,0,0,0,0,0,0,0
 2023-06-24 15:07:28.467,-39922.71899,30620.97348,3208.838786,24397.57727,19544.67828,-60876.29478,12058.72143,-53745.14952,-0.016,0.096,-0.99,192,0,0,0,0,0,0,0,0,0,0
 2023-06-24 15:07:28.467,-40012.46125,31517.36784,4117.303087,25257.38183,20453.34374,-61869.11456,12961.35193,-54347.55139,-0.016,0.096,-0.99,192,0,0,0,0,0,0,0,0,0,0
 2023-06-24 15:07:28.467,-39814.62596,32180.18647,4766.554209,25934.70674,21101.61139,-62148.51137,13606.98207,-54522.00675,-0.02,0.096,-0.99,192,255,96,3,0,225,16,0,0,0,0
 2023-06-24 15:07:28.467,-39597.65757,31757.11265,4321.799197,25569.00985,20662.04198,-61328.06824,13163.18818,-54026.0886,-0.02,0.096,-0.99,192,0,0,0,0,0,0,0,0,0,0
 2023-06-24 15:07:28.467,-39685.38817,30746.97027,3314.85311,24572.25616,19652.45839,-60484.80397,12170.5025,-53509.45038,-0.02,0.096,-0.99,192,0,0,0,0,0,0,0,0,0,0
 2023-06-24 15:07:28.467,-39944.04256,30706.64772,3300.659752,24468.70052,19628.2738,-60856.35702,12149.38011,-53737.54993,-0.02,0.096,-0.99,192,0,0,0,0,0,0,0,0,0,0
 2023-06-24 15:07:28.467,-40041.02678,31583.28314,4188.44869,25308.72378,20515.34748,-61850.74143,13026.73078,-54342.76811,-0.02,0.096,-0.99,192,0,0,0,0,0,0,0,0,0,0
 2023-06-24 15:07:28.467,-39851.84161,32206.98621,4794.091558,25973.06233,21133.88731,-62151.90883,13627.14334,-54530.65688,-0.02,0.096,-0.99,192,0,0,0,0,0,0,0,0,0,0
 2023-06-24 15:07:28.467,-39638.18129,31752.41879,4315.630116,25571.40149,20657.70574,-61348.85536,13153.68869,-54045.55697,-0.02,0.096,-0.99,192,0,0,0,0,0,0,0,0,0,0
 2023-06-24 15:07:28.467,-39727.83413,30710.58163,3274.932894,24532.47005,19615.3992,-60501.07604,12128.34711,-53525.43187,-0.02,0.096,-0.99,192,0,0,0,0,0,0,0,0,0,0
 2023-06-24 15:07:28.467,-39977.48077,30700.41158,3285.013531,24464.85602,19616.51678,-60853.00426,12138.74068,-53737.8405,-0.02,0.096,-0.99,192,0,0,0,0,0,0,0,0,0,0
 2023-06-24 15:07:28.467,-40064.362,31642.58231,4239.745944,25372.64977,20568.20936,-61837.68801,13086.18642,-54334.76619,-0.02,0.096,-0.99,192,0,0,0,0,0,0,0,0,0,0
 2023-06-24 15:07:28.467,-39878.55195,32244.42539,4828.513244,26005.33825,21159.70357,-62156.31213,13663.53198,-54536.62479,-0.026,0.096,-0.988,192,255,48,3,0,225,32,0,0,0,0
 2023-06-24 15:07:28.467,-39673.54175,31729.37414,4295.513546,25540.80195,20622.97113,-61378.42672,13133.61682,-54071.21677,-0.026,0.096,-0.988,192,0,0,0,0,0,0,0,0,0,0
 2023-06-24 15:07:28.467,-39758.25486,30667.10748,3234.967975,24487.38658,19561.0621,-60521.12556,12093.88072,-53546.37546,-0.026,0.096,-0.988,192,0,0,0,0,0,0,0,0,0,0
 2023-06-24 15:07:28.467,-40000.92775,30661.60895,3249.653071,24433.04949,19575.68015,-60849.98677,12111.82917,-53746.8259,-0.026,0.096,-0.988,192,0,0,0,0,0,0,0,0,0,0
 2023-06-24 15:07:28.467,-40096.14618,31555.76814,4152.57414,25291.20002,20483.09392,-61839.16322,13009.00585,-54346.83613,-0.026,0.096,-0.988,192,0,0,0,0,0,0,0,0,0,0
 2023-06-24 15:07:28.467,-39903.20592,32229.29325,4813.738741,25978.04677,21138.51412,-62165.09636,13656.87116,-54547.89007,-0.026,0.096,-0.988,192,0,0,0,0,0,0,0,0,0,0
 2023-06-24 15:07:28.467,-39687.84686,31767.75208,4331.678668,25569.79216,20654.35298,-61392.35185,13176.59923,-54081.36446,-0.026,0.096,-0.988,192,0,0,0,0,0,0,0,0,0,0
 2023-06-24 15:07:28.467,-39770.48126,30679.44565,3245.093315,24482.78212,19560.88329,-60529.59687,12091.37733,-53551.15873,-0.026,0.096,-0.988,192,0,0,0,0,0,0,0,0,0,0
 2023-06-24 15:07:28.947,-40025.20174,30568.64805,3150.679547,24329.89619,19474.56085,-60854.12185,11996.94121,-53749.91044,-0.026,0.096,-0.988,192,0,0,0,0,0,0,0,0,0,0
 2023-06-24 15:07:28.947,-40122.47653,31474.13957,4070.073851,25212.8348,20402.85115,-61839.18558,12909.96527,-54348.66897,-0.026,0.096,-0.988,192,0,0,0,0,0,0,0,0,0,0
 2023-06-24 15:07:28.948,-39928.17282,32192.65875,4775.986645,25944.80973,21108.67454,-62178.59682,13617.55444,-54558.10482,-0.016,0.1,-0.988,192,255,128,3,32,225,32,0,0,0,0
 2023-06-24 15:07:28.948,-39703.98482,31786.72871,4346.43082,25590.26636,20679.85632,-61413.67542,13190.94905,-54096.89892,-0.016,0.1,-0.988,192,0,0,0,0,0,0,0,0,0,0
 2023-06-24 15:07:28.948,-39776.38212,30727.34543,3285.818194,24547.64689,19625.56924,-60534.02251,12144.1498,-53554.91383,-0.016,0.1,-0.988,192,0,0,0,0,0,0,0,0,0,0
 2023-06-24 15:07:28.948,-40023.50301,30637.08909,3218.293574,24410.27306,19557.1729,-60835.12286,12076.31225,-53737.32641,-0.016,0.1,-0.988,192,0,0,0,0,0,0,0,0,0,0
 2023-06-24 15:07:28.948,-40122.74475,31528.87899,4122.376933,25264.7579,20464.49726,-61819.20312,12978.83099,-54333.08981,-0.016,0.1,-0.988,192,0,0,0,0,0,0,0,0,0,0
 2023-06-24 15:07:28.948,-39933.82781,32240.40207,4819.460788,25991.36841,21160.30707,-62174.03706,13681.45808,-54552.38277,-0.016,0.1,-0.988,192,0,0,0,0,0,0,0,0,0,0
 2023-06-24 15:07:28.948,-39713.77489,31807.76171,4363.306387,25606.7843,20701.09048,-61427.06411,13222.35325,-54102.06218,-0.016,0.1,-0.988,192,0,0,0,0,0,0,0,0,0,0
 2023-06-24 15:07:28.948,-39784.33934,30755.12865,3312.103845,24576.14536,19658.58277,-60539.96808,12172.73768,-53553.81859,-0.016,0.1,-0.988,192,0,0,0,0,0,0,0,0,0,0
 2023-06-24 15:07:28.948,-40024.24062,30704.83723,3283.359502,24484.05617,19635.06873,-60819.47664,12136.77372,-53720.49555,-0.016,0.1,-0.988,192,0,0,0,0,0,0,0,0,0,0
 2023-06-24 15:07:28.948,-40127.95271,31583.12667,4170.746108,25314.0882,20517.62736,-61801.32172,13018.81826,-54314.31434,-0.016,0.1,-0.988,192,0,0,0,0,0,0,0,0,0,0
 2023-06-24 15:07:28.948,-39949.09405,32272.02979,4847.266358,26022.16912,21192.60534,-62178.03802,13691.3152,-54545.87842,-0.016,0.096,-0.994,192,255,128,3,0,224,240,0,0,0,0
 2023-06-24 15:07:28.948,-39723.34143,31884.76347,4442.766838,25690.31277,20789.96101,-61439.42463,13288.93909,-54097.52477,-0.016,0.096,-0.994,192,0,0,0,0,0,0,0,0,0,0
 2023-06-24 15:07:28.948,-39784.60756,30833.51622,3393.061864,24655.65052,19742.69238,-60537.15176,12249.22535,-53538.95468,-0.016,0.096,-0.994,192,0,0,0,0,0,0,0,0,0,0
 2023-06-24 15:07:28.948,-40030.76733,30712.99561,3293.730711,24484.90554,19638.5109,-60802.75754,12153.22461,-53699.21669,-0.016,0.096,-0.994,192,0,0,0,0,0,0,0,0,0,0
 2023-06-24 15:07:28.948,-40144.78357,31539.11609,4132.412867,25268.28948,20476.32134,-61786.45781,12990.14097,-54295.7624,-0.016,0.096,-0.994,192,0,0,0,0,0,0,0,0,0,0
 2023-06-24 15:07:28.948,-39971.51285,32228.84622,4809.938945,25986.58514,21155.27793,-62181.74841,13654.61363,-54538.88232,-0.016,0.096,-0.994,192,0,0,0,0,0,0,0,0,0,0
 2023-06-24 15:07:28.948,-39750.81173,31830.76165,4391.335474,25636.17684,20735.51217,-61461.50815,13249.2871,-54103.26917,-0.016,0.096,-0.994,192,0,0,0,0,0,0,0,0,0,0
 2023-06-24 15:07:28.948,-39812.07786,30783.73889,3341.585796,24612.31048,19691.641,-60549.8252,12195.93879,-53540.16167,-0.016,0.096,-0.994,192,0,0,0,0,0,0,0,0,0,0
 2023-06-24 15:07:28.948,-40055.75658,30677.07636,3255.710394,24459.53631,19605.22915,-60798.10837,12118.40059,-53689.1584,-0.016,0.096,-0.994,192,0,0,0,0,0,0,0,0,0,0
 2023-06-24 15:07:28.948,-40169.01286,31494.90434,4089.072834,25229.82213,20431.93077,-61781.40632,12956.56865,-54283.87127,-0.016,0.096,-0.994,192,0,0,0,0,0,0,0,0,0,0
 2023-06-24 15:07:28.948,-40000.12308,32173.65976,4757.077069,25922.41328,21097.43161,-62192.47725,13619.32023,-54536.28952,-0.016,0.096,-0.994,192,0,0,0,0,0,0,0,0,0,0
 2023-06-24 15:07:28.948,-39777.65617,31798.44103,4361.786468,25605.77847,20702.20807,-61482.25057,13218.41934,-54107.87363,-0.02,0.094,-0.994,192,255,96,2,240,224,240,0,0,0,0
 2023-06-24 15:07:28.948,-39843.3703,30696.52238,3258.169086,24528.84907,19600.26706,-60568.98064,12106.53181,-53544.20734,-0.02,0.094,-0.994,192,0,0,0,0,0,0,0,0,0,0
 2023-06-24 15:07:28.948,-40085.21617,30612.79274,3195.494794,24400.14772,19538.15157,-60798.77893,12041.51059,-53680.97766,-0.02,0.094,-0.994,192,0,0,0,0,0,0,0,0,0,0
 2023-06-24 15:07:28.948,-40211.72705,31406.01145,4006.684304,25141.75625,20334.49952,-61784.69202,12836.33862,-54278.68566,-0.02,0.094,-0.994,192,0,0,0,0,0,0,0,0,0,0
 2023-06-24 15:07:28.948,-40040.49033,32147.37411,4736.066429,25891.47847,21060.39477,-62203.02727,13572.8286,-54534.1661,-0.02,0.094,-0.994,192,0,0,0,0,0,0,0,0,0,0
 2023-06-24 15:07:28.948,-39809.39565,31800.47504,4364.200457,25613.66863,20703.59387,-61500.5343,13202.97428,-54111.2711,-0.02,0.094,-0.994,192,0,0,0,0,0,0,0,0,0,0
 2023-06-24 15:07:28.948,-39862.65986,30730.31822,3288.746272,24566.02002,19638.95793,-60572.04283,12141.26642,-53537.18889,-0.02,0.094,-0.994,192,0,0,0,0,0,0,0,0,0,0
 2023-06-24 15:07:28.948,-40107.79144,30609.28352,3184.900067,24389.86592,19532.04954,-60789.61471,12047.16558,-53665.33144,-0.02,0.094,-0.994,192,0,0,0,0,0,0,0,0,0,0
 2023-06-24 15:07:28.948,-40227.50738,31479.57104,4070.878514,25214.33237,20412.48475,-61763.45787,12928.00312,-54252.75764,-0.02,0.094,-0.994,192,0,0,0,0,0,0,0,0,0,0
 2023-06-24 15:07:28.948,-40063.08795,32195.3186,4781.239305,25939.44531,21119.55984,-62198.33341,13625.3552,-54519.95039,-0.02,0.094,-0.994,192,0,0,0,0,0,0,0,0,0,0
 2023-06-24 15:07:28.948,-39833.69199,31865.02688,4429.288736,25672.40902,20769.2633,-61507.59745,13269.09074,-54104.38676,-0.024,0.098,-0.994,192,255,64,3,16,224,240,0,0,0,0
 2023-06-24 15:07:28.948,-39879.93775,30837.0925,3398.850965,24660.88082,19739.56314,-60564.08561,12250.29823,-53521.56502,-0.024,0.098,-0.994,192,0,0,0,0,0,0,0,0,0,0
 2023-06-24 15:07:28.948,-40131.30547,30637.71494,3222.09337,24412.15061,19561.33033,-60770.95101,12077.96628,-53645.39369,-0.024,0.098,-0.994,192,0,0,0,0,0,0,0,0,0,0
 2023-06-24 15:07:28.948,-40262.35375,31435.29224,4032.232348,25153.60268,20363.95912,-61748.70571,12886.20536,-54236.59733,-0.024,0.098,-0.994,192,0,0,0,0,0,0,0,0,0,0
 2023-06-24 15:07:28.948,-40100.79534,32173.39154,4757.814677,25903.36959,21086.30044,-62197.19347,13599.89656,-54513.46839,-0.024,0.098,-0.994,192,0,0,0,0,0,0,0,0,0,0
 2023-06-24 15:07:28.948,-39870.68413,31852.71106,4412.502576,25669.05626,20757.23806,-61519.28741,13254.27154,-54105.50435,-0.024,0.098,-0.994,192,0,0,0,0,0,0,0,0,0,0
 2023-06-24 15:07:28.948,-39916.4605,30802.35789,3359.109564,24637.00916,19705.32026,-60571.48404,12219.20696,-53517.98874,-0.024,0.098,-0.994,192,0,0,0,0,0,0,0,0,0,0
 2023-06-24 15:07:28.948,-40166.59888,30618.0454,3197.327637,24395.00682,19536.38578,-60760.46804,12051.59122,-53630.10509,-0.024,0.098,-0.994,192,0,0,0,0,0,0,0,0,0,0
 2023-06-24 15:07:28.948,-40302.63159,31406.19026,4001.006961,25147.72417,20335.46064,-61734.31119,12829.32017,-54219.5653,-0.024,0.098,-0.994,192,0,0,0,0,0,0,0,0,0,0
 2023-06-24 15:07:28.948,-40150.14799,32123.4801,4711.144234,25875.69813,21040.3229,-62202.64729,13540.37387,-54506.80757,-0.024,0.098,-0.994,192,0,0,0,0,0,0,0,0,0,0
 2023-06-24 15:07:28.949,-39915.49938,31843.72566,4410.692085,25647.71034,20749.9961,-61535.85005,13259.5242,-54103.15741,-0.018,0.098,-0.99,192,255,112,3,16,225,16,0,0,0,0
 2023-06-24 15:07:28.949,-39958.30297,30770.19373,3332.66745,24599.77115,19673.20081,-60581.94465,12176.06809,-53512.9596,-0.018,0.098,-0.99,192,0,0,0,0,0,0,0,0,0,0
 2023-06-24 15:07:28.949,-40201.33349,30614.31266,3201.46271,24389.03891,19532.31776,-60747.48167,12040.70592,-53610.50261,-0.018,0.098,-0.99,192,0,0,0,0,0,0,0,0,0,0
 2023-06-24 15:07:28.949,-40327.33027,31489.80814,4092.917334,25221.06024,20419.01146,-61711.55712,12918.16836,-54191.29034,-0.018,0.098,-0.99,192,0,0,0,0,0,0,0,0,0,0
 2023-06-24 15:07:28.949,-40154.93127,32337.81097,4926.749161,26091.43717,21257.26894,-62210.64922,13750.25675,-54500.97376,-0.018,0.098,-0.99,192,0,0,0,0,0,0,0,0,0,0
 2023-06-24 15:07:28.949,-39918.02513,32014.49299,4570.104727,25819.5729,20913.54381,-61559.25233,13412.45483,-54110.26527,-0.018,0.098,-0.99,192,0,0,0,0,0,0,0,0,0,0
 2023-06-24 15:07:28.949,-39973.54686,30867.17795,3416.821768,24688.97697,19760.86435,-60588.51607,12267.28556,-53508.89158,-0.018,0.098,-0.99,192,0,0,0,0,0,0,0,0,0,0
 2023-06-24 15:07:28.949,-40225.54043,30659.84317,3231.749324,24435.48583,19571.61213,-60742.78781,12079.75442,-53599.21498,-0.018,0.098,-0.99,192,0,0,0,0,0,0,0,0,0,0
 2023-06-24 15:07:28.949,-40348.49737,31537.43971,4126.355544,25263.12623,20461.25626,-61726.33162,12970.56085,-54197.57118,-0.018,0.098,-0.99,192,0,0,0,0,0,0,0,0,0,0
 2023-06-24 15:07:28.949,-40185.62021,32322.81295,4902.475167,26051.65107,21232.27969,-62226.42955,13743.66298,-54507.70164,-0.018,0.098,-0.99,192,0,0,0,0,0,0,0,0,0,0
 2023-06-24 15:07:28.949,-39960.82872,31981.70298,4538.253491,25765.50403,20872.88599,-61573.78096,13377.85433,-54113.72979,-0.024,0.092,-0.992,192,255,64,2,224,225,0,0,0,0,0
 2023-06-24 15:07:28.949,-40008.0803,30867.60263,3416.732361,24689.28989,19760.70789,-60592.51703,12260.91531,-53504.73416,-0.024,0.092,-0.992,192,0,0,0,0,0,0,0,0,0,0
 2023-06-24 15:07:28.949,-40259.06804,30644.71103,3217.444207,24421.80656,19558.31284,-60728.81797,12057.93912,-53584.50754,-0.024,0.092,-0.992,192,0,0,0,0,0,0,0,0,0,0
 2023-06-24 15:07:28.949,-40387.3,31486.58949,4077.338168,25216.50049,20416.15044,-61710.86421,12920.67175,-54182.14848,-0.024,0.092,-0.992,192,0,0,0,0,0,0,0,0,0,0
 2023-06-24 15:07:28.949,-40227.37327,32301.26587,4886.270152,26039.04468,21216.83463,-62224.95433,13707.60962,-54502.85131,-0.024,0.092,-0.992,192,0,0,0,0,0,0,0,0,0,0
 2023-06-24 15:07:28.949,-39999.96662,32016.30348,4579.850087,25805.49131,20909.29698,-61582.16287,13406.9116,-54114.86973,-0.024,0.092,-0.992,192,0,0,0,0,0,0,0,0,0,0
 2023-06-24 15:07:28.949,-40049.90042,30869.45783,3428.399972,24686.13829,19763.63596,-60596.47329,12270.01247,-53500.68849,-0.024,0.092,-0.992,192,0,0,0,0,0,0,0,0,0,0
 2023-06-24 15:07:28.949,-40309.13595,30587.60233,3169.164439,24362.37328,19505.71919,-60721.46424,12008.05003,-53572.10232,-0.024,0.092,-0.992,192,0,0,0,0,0,0,0,0,0,0
 2023-06-24 15:07:28.949,-40447.29208,31379.01054,3975.660083,25118.13046,20312.32659,-61702.63877,12809.65064,-54170.63733,-0.024,0.092,-0.992,192,0,0,0,0,0,0,0,0,0,0
 2023-06-24 15:07:28.949,-40284.8396,32242.50314,4828.647355,25988.21682,21165.40327,-62225.71429,13665.7001,-54493.21771,-0.024,0.092,-0.992,192,0,0,0,0,0,0,0,0,0,0
 2023-06-24 15:07:28.949,-40045.81005,32054.52496,4617.915108,25846.12678,20952.56996,-61587.41553,13456.8901,-54103.11271,-0.022,0.096,-0.992,192,255,80,3,0,225,0,0,0,0,0
 2023-06-24 15:07:28.949,-40084.12094,30960.27296,3516.108217,24787.59286,19859.25673,-60585.85621,12376.20561,-53478.76143,-0.022,0.096,-0.992,192,0,0,0,0,0,0,0,0,0,0
 2023-06-24 15:07:28.949,-40343.57999,30659.44083,3232.553987,24448.02516,19581.20103,-60696.31853,12094.66304,-53543.15681,-0.022,0.096,-0.992,192,0,0,0,0,0,0,0,0,0,0
 2023-06-24 15:07:28.949,-40489.89451,31420.20481,4009.724141,25155.30141,20357.3877,-61676.64369,12861.21611,-54141.31184,-0.022,0.096,-0.992,192,0,0,0,0,0,0,0,0,0,0
 2023-06-24 15:07:28.949,-40334.0805,32251.73441,4836.001079,25992.93303,21179.01548,-62215.49955,13685.5708,-54475.09044,-0.022,0.096,-0.992,192,0,0,0,0,0,0,0,0,0,0
 2023-06-24 15:07:28.949,-40097.08495,32015.40941,4584.543953,25806.60889,20919.57878,-61598.6361,13423.96598,-54099.71524,-0.022,0.096,-0.992,192,0,0,0,0,0,0,0,0,0,0
 2023-06-24 15:07:28.949,-40128.95854,30889.5744,3453.143353,24730.21593,19797.78943,-60595.78038,12293.70532,-53474.87223,-0.022,0.096,-0.992,192,0,0,0,0,0,0,0,0,0,0
 2023-06-24 15:07:28.949,-40379.29808,30600.85691,3182.7543,24403.20991,19531.62486,-60686.59552,12028.36776,-53524.4484,-0.022,0.096,-0.992,192,0,0,0,0,0,0,0,0,0,0
 2023-06-24 15:07:28.949,-40510.21224,31457.64398,4054.494685,25209.05736,20400.72774,-61650.13452,12889.15579,-54105.5714,-0.022,0.096,-0.992,192,0,0,0,0,0,0,0,0,0,0
 2023-06-24 15:07:28.949,-40348.74324,32314.27459,4899.904716,26075.36627,21244.97548,-62200.03214,13742.88067,-54444.96029,-0.022,0.096,-0.992,192,0,0,0,0,0,0,0,0,0,0
 2023-06-24 15:07:28.949,-40116.15099,32032.5979,4596.837413,25841.14234,20938.44365,-61602.94999,13445.28955,-54084.98545,-0.022,0.092,-0.988,192,255,80,2,224,225,32,0,0,0,0
 2023-06-24 15:07:28.949,-40143.97891,30902.4937,3460.02769,24744.85633,19804.45025,-60594.34987,12312.41373,-53456.85672,-0.022,0.092,-0.988,192,0,0,0,0,0,0,0,0,0,0
 2023-06-24 15:07:28.949,-40396.62068,30577.67815,3150.612491,24383.36156,19504.37808,-60670.47991,12015.73903,-53498.31921,-0.022,0.092,-0.988,192,0,0,0,0,0,0,0,0,0,0
 2023-06-24 15:07:28.949,-40541.39293,31342.59955,3930.241338,25096.76219,20281.39177,-61636.27644,12789.57877,-54084.09138,-0.022,0.092,-0.988,192,0,0,0,0,0,0,0,0,0,0
 2023-06-24 15:07:28.949,-40384.90836,32206.58388,4788.816546,25967.67556,21135.85426,-62197.57345,13640.46498,-54430.69988,-0.022,0.092,-0.988,192,0,0,0,0,0,0,0,0,0,0
 2023-06-24 15:07:28.949,-40141.43081,32022.60667,4585.147451,25835.39794,20931.49226,-61604.62637,13430.26917,-54069.04865,-0.022,0.092,-0.988,192,0,0,0,0,0,0,0,0,0,0
 2023-06-24 15:07:28.949,-40168.67759,30859.93598,3415.815939,24703.10327,19762.96541,-60592.89701,12271.55474,-53439.55647,-0.022,0.092,-0.988,192,0,0,0,0,0,0,0,0,0,0
 2023-06-24 15:07:28.949,-40426.12498,30489.81345,3065.854676,24294.53573,19415.66401,-60653.93962,11914.46327,-53472.01121,-0.022,0.092,-0.988,192,0,0,0,0,0,0,0,0,0,0
 2023-06-24 15:07:28.949,-40570.4949,31323.68998,3918.014934,25065.22388,20257.96715,-61607.35328,12752.69839,-54047.2557,-0.022,0.092,-0.988,192,0,0,0,0,0,0,0,0,0,0
 2023-06-24 15:07:28.949,-40425.85676,32169.30117,4754.640729,25908.04111,21087.7086,-62186.39757,13590.7547,-54403.85543,-0.022,0.092,-0.988,192,0,0,0,0,0,0,0,0,0,0
 2023-06-24 15:07:28.949,-40192.99629,31968.31429,4529.111627,25758.28442,20864.1241,-61612.96357,13374.07689,-54056.17405,-0.018,0.094,-0.99,192,255,112,2,240,225,16,0,0,0,0
 2023-06-24 15:07:28.949,-40214.69983,30880.47724,3430.523387,24709.04883,19770.81087,-60590.48302,12277.92499,-53417.22708,-0.018,0.094,-0.99,192,0,0,0,0,0,0,0,0,0,0
 2023-06-24 15:07:28.949,-40468.07921,30556.24283,3130.786494,24347.08468,19467.94474,-60627.18458,11974.81298,-53432.20275,-0.018,0.094,-0.99,192,0,0,0,0,0,0,0,0,0,0
 2023-06-24 15:07:28.949,-40630.17406,31278.09242,3871.120974,25015.78182,20200.25494,-61584.64391,12700.9541,-54011.80583,-0.018,0.094,-0.99,192,0,0,0,0,0,0,0,0,0,0
 2023-06-24 15:07:28.949,-40495.95183,32104.59287,4691.161775,25838.77305,21014.0149,-62180.58612,13523.72182,-54379.24616,-0.018,0.094,-0.99,192,0,0,0,0,0,0,0,0,0,0
 2023-06-24 15:07:28.949,-40264.63363,31928.55053,4492.544173,25710.98813,20816.47018,-61621.09961,13339.007,-54040.01374,-0.018,0.094,-0.99,192,0,0,0,0,0,0,0,0,0,0
 2023-06-24 15:07:28.949,-40296.21664,30771.62424,3324.062028,24607.59426,19662.33786,-60602.50826,12183.73474,-53408.30873,-0.018,0.094,-0.99,192,0,0,0,0,0,0,0,0,0,0
 2023-06-24 15:07:28.950,-40559.5649,30380.62517,2954.587693,24180.6983,19294.87518,-60630.38088,11815.57915,-53420.66925,-0.018,0.094,-0.99,192,0,0,0,0,0,0,0,0,0,0
 2023-06-24 15:07:28.950,-40719.22341,31184.57272,3774.494383,24938.08716,20119.07341,-61575.41264,12620.08549,-53990.95166,-0.018,0.094,-0.99,192,0,0,0,0,0,0,0,0,0,0
 2023-06-24 15:07:28.950,-40569.66788,32169.85997,4751.489133,25922.23447,21092.51423,-62165.83397,13582.21633,-54354.41337,-0.018,0.094,-0.99,192,0,0,0,0,0,0,0,0,0,0
 2023-06-24 15:07:28.950,-40338.03676,31984.58636,4546.210712,25786.98406,20883.2572,-61619.91496,13387.19736,-54027.16148,-0.016,0.092,-0.986,192,255,128,2,224,225,48,0,0,0,0
 2023-06-24 15:07:28.950,-40367.40695,30809.37634,3361.74707,24645.01108,19708.29305,-60601.86006,12214.91542,-53394.80828,-0.016,0.092,-0.986,192,0,0,0,0,0,0,0,0,0,0
 2023-06-24 15:07:28.950,-40619.8699,30469.33925,3040.708964,24268.78652,19389.49011,-60605.5481,11881.31563,-53390.09206,-0.016,0.092,-0.986,192,0,0,0,0,0,0,0,0,0,0
 2023-06-24 15:07:28.950,-40785.33987,31242.39668,3832.363049,24994.19004,20179.73604,-61546.28832,12665.81716,-53959.03337,-0.016,0.092,-0.986,192,0,0,0,0,0,0,0,0,0,0
 2023-06-24 15:07:28.950,-40657.95727,32119.09915,4699.767196,25871.94304,21044.74855,-62165.00696,13533.51188,-54342.43284,-0.016,0.092,-0.986,192,0,0,0,0,0,0,0,0,0,0
 2023-06-24 15:07:28.950,-40429.14247,31962.54754,4522.674325,25766.64397,20866.69455,-61635.51648,13364.97973,-54023.92048,-0.016,0.092,-0.986,192,0,0,0,0,0,0,0,0,0,0
 2023-06-24 15:07:28.950,-40442.57587,30880.29842,3433.451466,24708.46769,19779.461,-60601.81536,12281.12129,-53381.35253,-0.016,0.092,-0.986,192,0,0,0,0,0,0,0,0,0,0
 2023-06-24 15:07:28.950,-40697.94455,30492.87563,3066.435822,24287.42788,19415.82047,-60591.15357,11905.12024,-53372.30007,-0.016,0.092,-0.986,192,0,0,0,0,0,0,0,0,0,0
 2023-06-24 15:07:28.950,-40864.75561,31275.63373,3867.879971,25020.07336,20213.88951,-61520.76262,12707.48081,-53934.87113,-0.016,0.092,-0.986,192,0,0,0,0,0,0,0,0,0,0
 2023-06-24 15:07:28.950,-40745.75493,32113.80179,4701.197708,25860.02956,21046.78256,-62157.67558,13558.747,-54330.31819,-0.016,0.092,-0.986,192,0,0,0,0,0,0,0,0,0,0
 2023-06-24 15:07:28.950,-40510.72633,32004.70293,4573.055157,25797.22116,20920.09287,-61638.9363,13432.30318,-54017.99727,-0.018,0.096,-0.984,192,255,112,3,0,225,64,0,0,0,0
 2023-06-24 15:07:28.950,-40519.93525,30943.55386,3504.261792,24766.76104,19847.70088,-60600.80953,12358.45832,-53374.26703,-0.018,0.096,-0.984,192,0,0,0,0,0,0,0,0,0,0
 2023-06-24 15:07:28.950,-40779.86369,30519.80949,3100.924564,24304.75048,19438.39573,-60577.72017,11939.98896,-53358.50905,-0.018,0.096,-0.984,192,0,0,0,0,0,0,0,0,0,0
 2023-06-24 15:07:28.950,-40956.30836,31261.50742,3858.603997,24992.15603,20193.12473,-61506.74808,12688.30302,-53921.54949,-0.018,0.096,-0.984,192,0,0,0,0,0,0,0,0,0,0
 2023-06-24 15:07:28.950,-40828.27757,32210.18251,4798.114872,25953.41515,21136.01072,-62143.214,13618.82849,-54314.56021,-0.018,0.096,-0.984,192,0,0,0,0,0,0,0,0,0,0
 2023-06-24 15:07:28.950,-40600.93797,32061.11873,4623.726562,25868.47852,20966.71861,-61646.13356,13448.17292,-54015.69504,-0.018,0.096,-0.984,192,0,0,0,0,0,0,0,0,0,0
 2023-06-24 15:07:28.950,-40612.06914,30966.97849,3521.539691,24805.3178,19869.42677,-60609.19143,12369.7236,-53371.18249,-0.018,0.096,-0.984,192,0,0,0,0,0,0,0,0,0,0
 2023-06-24 15:07:28.950,-40863.10159,30573.25251,3147.863227,24367.87181,19499.19248,-60560.95637,12007.26771,-53338.19131,-0.018,0.096,-0.984,192,0,0,0,0,0,0,0,0,0,0
 2023-06-24 15:07:28.950,-41040.30622,31301.36058,3894.657361,25047.94598,20239.23638,-61484.48574,12745.36702,-53897.9684,-0.018,0.096,-0.984,192,0,0,0,0,0,0,0,0,0,0
 2023-06-24 15:07:28.950,-40921.61845,32215.32341,4802.138186,25960.56771,21141.50925,-62140.33063,13642.58839,-54304.99367,-0.018,0.096,-0.984,192,0,0,0,0,0,0,0,0,0,0
 2023-06-24 15:07:28.950,-40688.82503,32125.98349,4690.871202,25932.60568,21034.69027,-61654.20254,13528.6839,-54014.62215,-0.02,0.098,-0.986,192,255,96,3,16,225,48,0,0,0,0
 2023-06-24 15:07:28.950,-40700.11266,31000.77432,3557.973034,24841.97466,19903.80375,-60619.29442,12409.26384,-53374.6023,-0.02,0.098,-0.986,192,0,0,0,0,0,0,0,0,0,0
 2023-06-24 15:07:28.950,-40956.37541,30546.13984,3117.688372,24348.78342,19466.87185,-60563.07978,11974.74593,-53339.19714,-0.02,0.098,-0.986,192,0,0,0,0,0,0,0,0,0,0
 2023-06-24 15:07:28.950,-41141.06788,31232.89719,3820.874252,24982.63418,20166.48146,-61484.37398,12672.45563,-53898.77306,-0.02,0.098,-0.986,192,0,0,0,0,0,0,0,0,0,0
 2023-06-24 15:07:28.950,-41014.98169,32229.80734,4816.331543,25967.5638,21151.56754,-62144.04102,13658.16756,-54306.22301,-0.02,0.098,-0.986,192,0,0,0,0,0,0,0,0,0,0
 2023-06-24 15:07:28.950,-40783.37291,32132.89018,4697.956705,25928.58236,21037.10425,-61670.63107,13536.88699,-54024.65809,-0.02,0.098,-0.986,192,0,0,0,0,0,0,0,0,0,0
 2023-06-24 15:07:28.950,-40796.40398,30963.29045,3519.930365,24799.86397,19860.32961,-60637.55579,12362.81691,-53386.15815,-0.02,0.098,-0.986,192,0,0,0,0,0,0,0,0,0,0
 2023-06-24 15:07:29.425,-41049.13515,30506.84548,3084.026645,24302.5153,19420.15671,-60565.2479,11919.3136,-53338.61599,-0.02,0.098,-0.986,192,0,0,0,0,0,0,0,0,0,0
 2023-06-24 15:07:29.425,-41231.59244,31235.73586,3834.754686,24981.96363,20169.07426,-61476.05914,12664.27489,-53889.60885,-0.02,0.098,-0.986,192,0,0,0,0,0,0,0,0,0,0
 2023-06-24 15:07:29.425,-41118.69378,32166.08252,4761.636825,25906.90117,21092.91656,-62157.58618,13584.63032,-54312.95089,-0.02,0.098,-0.986,192,0,0,0,0,0,0,0,0,0,0
 2023-06-24 15:07:29.425,-40878.39018,32123.72597,4693.486356,25914.47841,21031.00223,-61694.7486,13526.7393,-54036.25864,-0.022,0.1,-0.988,192,255,80,3,32,225,32,0,0,0,0
 2023-06-24 15:07:29.426,-40866.74492,31081.44177,3636.517064,24912.9638,19981.05138,-60641.84733,12494.6028,-53382.35836,-0.022,0.1,-0.988,192,0,0,0,0,0,0,0,0,0,0
 2023-06-24 15:07:29.426,-41115.96687,30590.23983,3161.22957,24400.23713,19513.83287,-60552.03802,12015.85078,-53324.48969,-0.022,0.1,-0.988,192,0,0,0,0,0,0,0,0,0,0
 2023-06-24 15:07:29.426,-41299.98878,31289.96119,3880.151079,25047.99069,20235.41424,-61456.18844,12721.89769,-53871.99567,-0.022,0.1,-0.988,192,0,0,0,0,0,0,0,0,0,0
 2023-06-24 15:07:29.426,-41193.63918,32198.11257,4782.915686,25957.48317,21137.6424,-62153.65227,13621.39894,-54305.396,-0.022,0.1,-0.988,192,0,0,0,0,0,0,0,0,0,0
 2023-06-24 15:07:29.426,-40957.33654,32136.73468,4702.89644,25938.86416,21052.10227,-61710.30542,13546.78882,-54041.91363,-0.022,0.1,-0.988,192,0,0,0,0,0,0,0,0,0,0
 2023-06-24 15:07:29.426,-40952.64267,31034.54781,3593.132328,24874.80937,19942.02524,-60664.44494,12443.79728,-53394.56241,-0.022,0.1,-0.988,192,0,0,0,0,0,0,0,0,0,0
 2023-06-24 15:07:29.426,-41201.21642,30540.21663,3118.649497,24345.4083,19467.65416,-60557.89418,11965.64877,-53327.28366,-0.022,0.1,-0.988,192,0,0,0,0,0,0,0,0,0,0
 2023-06-24 15:07:29.426,-41391.58623,31205.44925,3808.021999,24951.4535,20143.74973,-61456.25549,12646.63936,-53873.40383,-0.022,0.1,-0.988,192,0,0,0,0,0,0,0,0,0,0
 2023-06-24 15:07:29.426,-41283.24733,32169.54704,4770.398709,25907.32585,21098.83977,-62161.11775,13608.32317,-54310.46984,-0.022,0.1,-0.988,192,0,0,0,0,0,0,0,0,0,0
 2023-06-24 15:07:29.426,-41045.93885,32109.64437,4685.216211,25912.55616,21027.87298,-61733.01479,13515.25051,-54058.43157,-0.018,0.098,-0.986,192,255,112,3,16,225,48,0,0,0,0
 2023-06-24 15:07:29.426,-41030.85143,31028.98223,3591.120671,24871.99305,19939.36538,-60680.44879,12435.81771,-53406.36413,-0.018,0.098,-0.986,192,0,0,0,0,0,0,0,0,0,0
 2023-06-24 15:07:29.426,-41269.29984,30561.29432,3143.638747,24365.9272,19486.25082,-60550.38399,11992.82849,-53320.62284,-0.018,0.098,-0.986,192,0,0,0,0,0,0,0,0,0,0
 2023-06-24 15:07:29.426,-41461.39073,31203.34818,3803.529299,24951.34174,20140.68754,-61443.6044,12641.09613,-53861.64681,-0.018,0.098,-0.986,192,0,0,0,0,0,0,0,0,0,0
 2023-06-24 15:07:29.426,-41363.95948,32110.22551,4703.6564,25847.80316,21036.12078,-62169.72317,13540.19505,-54313.28616,-0.018,0.098,-0.986,192,0,0,0,0,0,0,0,0,0,0
 2023-06-24 15:07:29.426,-41117.0174,32130.09621,4698.426091,25919.17228,21039.31708,-61752.10318,13548.91223,-54065.27121,-0.018,0.098,-0.986,192,0,0,0,0,0,0,0,0,0,0
 2023-06-24 15:07:29.426,-41095.8503,31048.13767,3602.140081,24877.35747,19947.05438,-60698.66546,12446.99358,-53412.17559,-0.018,0.098,-0.986,192,0,0,0,0,0,0,0,0,0,0
 2023-06-24 15:07:29.426,-41330.9236,30571.12909,3143.370526,24376.43252,19494.23039,-60548.50644,11990.43685,-53316.26425,-0.018,0.098,-0.986,192,0,0,0,0,0,0,0,0,0,0
 2023-06-24 15:07:29.426,-41516.77835,31239.35684,3830.396096,24994.74883,20182.03827,-61426.12534,12674.62375,-53847.29699,-0.018,0.098,-0.986,192,0,0,0,0,0,0,0,0,0,0
 2023-06-24 15:07:29.426,-41419.95059,32168.89884,4756.473572,25919.41815,21102.25959,-62159.70959,13592.63225,-54303.5408,-0.018,0.098,-0.986,192,0,0,0,0,0,0,0,0,0,0
 2023-06-24 15:07:29.426,-41180.09403,32157.25358,4725.605813,25949.28008,21066.38504,-61762.02735,13559.59637,-54068.28869,-0.016,0.094,-0.992,192,255,128,2,240,225,0,0,0,0,0
 2023-06-24 15:07:29.426,-41155.30594,31067.82956,3627.777532,24898.01048,19964.66755,-60707.15913,12462.14807,-53414.76839,-0.016,0.094,-0.992,192,0,0,0,0,0,0,0,0,0,0
 2023-06-24 15:07:29.426,-41388.94873,30571.62083,3152.758259,24360.7416,19482.09339,-60541.66681,11971.63903,-53308.82112,-0.016,0.094,-0.992,192,0,0,0,0,0,0,0,0,0,0
 2023-06-24 15:07:29.426,-41585.97935,31179.9012,3784.038578,24915.89188,20105.26003,-61419.86685,12592.32463,-53840.92675,-0.016,0.094,-0.992,192,0,0,0,0,0,0,0,0,0,0
 2023-06-24 15:07:29.426,-41491.34207,32118.07097,4718.810882,25853.01111,21040.70288,-62168.02444,13540.53033,-54305.50776,-0.016,0.094,-0.992,192,0,0,0,0,0,0,0,0,0,0
 2023-06-24 15:07:29.426,-41238.52149,32182.64516,4763.067336,25967.60851,21090.23435,-61779.08174,13593.3475,-54073.67546,-0.016,0.094,-0.992,192,0,0,0,0,0,0,0,0,0,0
 2023-06-24 15:07:29.426,-41201.75287,31137.74581,3703.192318,24976.64392,20042.92101,-60715.38457,12537.07111,-53412.84614,-0.016,0.094,-0.992,192,0,0,0,0,0,0,0,0,0,0
 2023-06-24 15:07:29.426,-41441.38592,30571.822,3153.182942,24374.15265,19495.83971,-60536.72708,11996.67299,-53299.29928,-0.016,0.094,-0.992,192,0,0,0,0,0,0,0,0,0,0
 2023-06-24 15:07:29.426,-41633.72268,31223.17418,3823.981145,24966.11625,20160.40178,-61400.93492,12669.12522,-53820.40785,-0.016,0.094,-0.992,192,0,0,0,0,0,0,0,0,0,0
 2023-06-24 15:07:29.426,-41544.13689,32164.87553,4762.553246,25913.78551,21101.92431,-62158.43554,13602.60112,-54290.53209,-0.016,0.094,-0.992,192,0,0,0,0,0,0,0,0,0,0
 2023-06-24 15:07:29.426,-41303.56506,32165.36727,4740.04504,25965.26157,21086.70277,-61793.65507,13580.15997,-54077.3188,-0.02,0.096,-0.988,192,255,96,3,0,225,32,0,0,0,0
 2023-06-24 15:07:29.426,-41268.13755,31095.14339,3654.174942,24939.76354,20004.52071,-60733.62359,12500.16838,-53423.73144,-0.02,0.096,-0.988,192,0,0,0,0,0,0,0,0,0,0
 2023-06-24 15:07:29.426,-41499.85808,30562.61308,3138.833122,24382.46749,19493.04575,-60532.81552,11983.77603,-53297.39938,-0.02,0.096,-0.988,192,0,0,0,0,0,0,0,0,0,0
 2023-06-24 15:07:29.426,-41695.65936,31182.33754,3782.675121,24944.07743,20123.72257,-61391.43543,12623.05827,-53817.01038,-0.02,0.096,-0.988,192,0,0,0,0,0,0,0,0,0,0
 2023-06-24 15:07:29.426,-41599.61392,32175.47025,4775.830183,25922.18976,21106.32761,-62153.24994,13621.28718,-54288.87806,-0.02,0.096,-0.988,192,0,0,0,0,0,0,0,0,0,0
 2023-06-24 15:07:29.426,-41354.05765,32197.2632,4777.640674,25991.45782,21112.54139,-61800.94174,13621.35424,-54082.63851,-0.02,0.096,-0.988,192,0,0,0,0,0,0,0,0,0,0
 2023-06-24 15:07:29.426,-41318.89836,31091.07537,3656.074841,24940.59055,20002.19613,-60746.52055,12501.19656,-53430.77224,-0.02,0.096,-0.988,192,0,0,0,0,0,0,0,0,0,0
 2023-06-24 15:07:29.426,-41550.08245,30535.9698,3121.398761,24354.61722,19468.43648,-60531.38501,11966.744,-53293.62193,-0.02,0.096,-0.988,192,0,0,0,0,0,0,0,0,0,0
 2023-06-24 15:07:29.426,-41745.39199,31166.24429,3773.82383,24926.46425,20115.54183,-61379.20903,12600.52772,-53805.49923,-0.02,0.096,-0.988,192,0,0,0,0,0,0,0,0,0,0
 2023-06-24 15:07:29.426,-41664.72455,32105.28578,4711.434807,25853.56991,21048.39188,-62161.65419,13528.95213,-54292.70021,-0.02,0.096,-0.988,192,0,0,0,0,0,0,0,0,0,0
 2023-06-24 15:07:29.426,-41412.21689,32208.41673,4794.918572,25994.81058,21129.28285,-61820.49952,13620.68368,-54092.42858,-0.02,0.09,-0.986,192,255,96,2,208,225,48,0,0,0,0
 2023-06-24 15:07:29.426,-41365.03236,31144.45134,3719.307926,24972.5759,20055.14742,-60758.47873,12552.94085,-53437.54482,-0.02,0.09,-0.986,192,0,0,0,0,0,0,0,0,0,0
 2023-06-24 15:07:29.426,-41595.97058,30542.60827,3136.799113,24354.97485,19474.82907,-60524.83595,11962.8995,-53291.34205,-0.02,0.09,-0.986,192,0,0,0,0,0,0,0,0,0,0
 2023-06-24 15:07:29.426,-41798.52209,31119.73031,3729.768542,24880.75493,20072.26885,-61367.18379,12567.02245,-53802.52645,-0.02,0.09,-0.986,192,0,0,0,0,0,0,0,0,0,0
 2023-06-24 15:07:29.426,-41722.4144,32062.75041,4666.530152,25809.02288,21006.03533,-62161.36362,13499.80545,-54298.71283,-0.02,0.09,-0.986,192,0,0,0,0,0,0,0,0,0,0
 2023-06-24 15:07:29.426,-41472.14192,32175.24674,4756.875903,25960.90298,21096.80576,-61839.09617,13595.42621,-54110.28762,-0.02,0.09,-0.986,192,0,0,0,0,0,0,0,0,0,0
 2023-06-24 15:07:29.426,-41416.62018,31155.89543,3722.101894,24979.50494,20060.55654,-60776.87422,12567.51419,-53454.24157,-0.02,0.09,-0.986,192,0,0,0,0,0,0,0,0,0,0
 2023-06-24 15:07:29.426,-41649.12303,30514.62388,3098.622334,24318.02742,19440.60855,-60530.80386,11940.68187,-53299.90277,-0.02,0.09,-0.986,192,0,0,0,0,0,0,0,0,0,0
 2023-06-24 15:07:29.426,-41848.09826,31108.33092,3713.384713,24856.70446,20051.66054,-61361.34998,12556.1595,-53801.14064,-0.02,0.09,-0.986,192,0,0,0,0,0,0,0,0,0,0
 2023-06-24 15:07:29.426,-41761.99934,32150.95039,4750.639767,25900.57563,21094.14591,-62153.24994,13582.88688,-54291.24734,-0.02,0.09,-0.986,192,0,0,0,0,0,0,0,0,0,0
 2023-06-24 15:07:29.426,-41510.34105,32259.75868,4837.543349,26054.78031,21176.6909,-61846.20402,13669.34343,-54112.29928,-0.024,0.098,-0.99,192,255,64,3,16,225,16,0,0,0,0
 2023-06-24 15:07:29.426,-41447.77852,31215.1052,3775.589618,25056.10437,20117.41938,-60786.15019,12618.38676,-53459.53893,-0.024,0.098,-0.99,192,0,0,0,0,0,0,0,0,0,0
 2023-06-24 15:07:29.426,-41669.99956,30576.94055,3155.820448,24384.70267,19494.49861,-60519.33742,11992.82849,-53292.10201,-0.024,0.098,-0.99,192,0,0,0,0,0,0,0,0,0,0
 2023-06-24 15:07:29.426,-41870.38295,31129.05099,3730.014411,24883.99594,20063.9093,-61345.97198,12564.4967,-53789.60714,-0.024,0.098,-0.99,192,0,0,0,0,0,0,0,0,0,0
 2023-06-24 15:07:29.426,-41785.7816,32165.90371,4763.782592,25907.9517,21100.4491,-62149.65131,13607.04912,-54287.55931,-0.024,0.098,-0.99,192,0,0,0,0,0,0,0,0,0,0
 2023-06-24 15:07:29.426,-41534.12331,32288.43597,4864.521905,26076.84148,21202.41776,-61861.04558,13698.69127,-54120.56942,-0.024,0.098,-0.99,192,0,0,0,0,0,0,0,0,0,0
 2023-06-24 15:07:29.426,-41467.64922,31227.46572,3789.604162,25061.53584,20127.87999,-60804.76919,12624.13116,-53470.40188,-0.024,0.098,-0.99,192,0,0,0,0,0,0,0,0,0,0
 2023-06-24 15:07:29.426,-41687.09864,30554.11941,3129.154817,24368.89999,19478.27124,-60521.46083,11961.73721,-53292.86197,-0.024,0.098,-0.99,192,0,0,0,0,0,0,0,0,0,0
 2023-06-24 15:07:29.426,-41879.9495,31163.1374,3753.327281,24917.88118,20101.46023,-61330.48222,12587.18372,-53779.32534,-0.024,0.098,-0.99,192,0,0,0,0,0,0,0,0,0,0
 2023-06-24 15:07:29.426,-41800.44434,32171.26813,4761.681528,25906.96822,21098.92918,-62147.39378,13581.1211,-54285.72646,-0.024,0.098,-0.99,192,0,0,0,0,0,0,0,0,0,0
 2023-06-24 15:07:29.426,-41546.30501,32311.07829,4880.905733,26094.92404,21220.45561,-61873.16023,13697.95367,-54126.11265,-0.028,0.096,-0.986,192,255,32,3,0,225,48,0,0,0,0
 2023-06-24 15:07:29.426,-41476.81343,31231.22081,3786.385511,25071.12474,20132.97619,-60818.91785,12621.78422,-53479.56609,-0.028,0.096,-0.986,192,0,0,0,0,0,0,0,0,0,0
 2023-06-24 15:07:29.426,-41702.67781,30525.24096,3098.242354,24336.60171,19445.39183,-60522.37726,11943.0735,-53296.30414,-0.028,0.096,-0.986,192,0,0,0,0,0,0,0,0,0,0
 2023-06-24 15:07:29.426,-41902.4577,31117.38337,3707.282687,24871.00957,20056.98026,-61326.23539,12557.99235,-53778.76655,-0.028,0.096,-0.986,192,0,0,0,0,0,0,0,0,0,0
 2023-06-24 15:07:29.426,-41827.73582,32123.79302,4714.117016,25860.61071,21058.8972,-62151.95354,13568.04533,-54290.46503,-0.028,0.096,-0.986,192,0,0,0,0,0,0,0,0,0,0
 2023-06-24 15:07:29.426,-41580.8608,32231.05904,4805.043913,26004.13126,21138.49177,-61894.59555,13656.02179,-54145.55867,-0.028,0.096,-0.986,192,0,0,0,0,0,0,0,0,0,0
 2023-06-24 15:07:29.426,-41499.79103,31217.76506,3780.082319,25035.69723,20114.17837,-60835.63695,12621.38189,-53495.25702,-0.028,0.096,-0.986,192,0,0,0,0,0,0,0,0,0,0
 2023-06-24 15:07:29.426,-41713.04902,30533.17583,3112.949802,24326.05169,19445.77181,-60514.0177,11945.30868,-53296.32649,-0.028,0.096,-0.986,192,0,0,0,0,0,0,0,0,0,0
 2023-06-24 15:07:29.426,-41922.99896,31019.84036,3622.122541,24761.06134,19951.25651,-61317.74173,12444.22197,-53782.40988,-0.028,0.096,-0.986,192,0,0,0,0,0,0,0,0,0,0
 2023-06-24 15:07:29.427,-41857.12836,32009.03916,4609.287335,25745.27571,20938.01897,-62158.77082,13425.57531,-54304.32311,-0.028,0.096,-0.986,192,0,0,0,0,0,0,0,0,0,0
 2023-06-24 15:07:29.427,-41606.36414,32168.83179,4747.488171,25943.89331,21074.67754,-61916.36615,13570.61578,-54165.87641,-0.022,0.094,-0.988,192,255,80,2,240,225,32,0,0,0,0
 2023-06-24 15:07:29.427,-41509.73755,31233.74656,3792.487537,25051.16463,20130.40574,-60850.47851,12635.03881,-53507.99751,-0.022,0.094,-0.988,192,0,0,0,0,0,0,0,0,0,0
 2023-06-24 15:07:29.427,-41718.10051,30546.76569,3118.94007,24343.70957,19460.68042,-60506.52987,11959.77026,-53292.95138,-0.022,0.094,-0.988,192,0,0,0,0,0,0,0,0,0,0
 2023-06-24 15:07:29.427,-41929.61507,31042.058,3637.254672,24785.73767,19981.11844,-61296.93226,12469.50179,-53769.60233,-0.022,0.094,-0.988,192,0,0,0,0,0,0,0,0,0,0
 2023-06-24 15:07:29.427,-41858.60358,32073.90393,4669.145306,25804.82075,21013.65727,-62143.214,13498.62081,-54292.32023,-0.022,0.094,-0.988,192,0,0,0,0,0,0,0,0,0,0
 2023-06-24 15:07:29.427,-41600.91032,32287.69836,4862.689061,26057.99896,21207.31279,-61911.73934,13700.41236,-54158.18741,-0.022,0.094,-0.988,192,0,0,0,0,0,0,0,0,0,0
 2023-06-24 15:07:29.427,-41507.70354,31309.49662,3868.058785,25130.31216,20217.0411,-60855.4406,12708.37488,-53507.59518,-0.022,0.094,-0.988,192,0,0,0,0,0,0,0,0,0,0
 2023-06-24 15:07:29.427,-41715.3289,30602.08626,3177.36753,24401.1759,19522.97473,-60498.14796,12018.10831,-53285.59766,-0.022,0.094,-0.988,192,0,0,0,0,0,0,0,0,0,0
 2023-06-24 15:07:29.427,-41929.16804,31084.61572,3678.895972,24835.49265,20027.00657,-61282.58244,12520.77669,-53757.28652,-0.022,0.094,-0.988,192,0,0,0,0,0,0,0,0,0,0
 2023-06-24 15:07:29.427,-41865.35381,32125.51411,4718.028571,25859.69429,21065.26745,-62139.30245,13550.99095,-54286.73229,-0.022,0.094,-0.988,192,0,0,0,0,0,0,0,0,0,0
 2023-06-24 15:07:29.427,-41617.20474,32297.8237,4867.628797,26069.71128,21213.63833,-61929.62073,13697.57369,-54169.69856,-0.02,0.094,-0.986,192,255,96,2,240,225,48,0,0,0,0
 2023-06-24 15:07:29.427,-41525.76375,31284.84264,3837.481599,25087.35211,20174.48338,-60879.71459,12670.06399,-53523.30846,-0.02,0.094,-0.986,192,0,0,0,0,0,0,0,0,0,0
 2023-06-24 15:07:29.427,-41722.54851,30601.68393,3166.48223,24375.80667,19500.17595,-60496.94097,11994.66133,-53282.40136,-0.02,0.094,-0.986,192,0,0,0,0,0,0,0,0,0,0
 2023-06-24 15:07:29.427,-41936.49941,31080.72651,3662.467439,24818.03594,20003.42548,-61266.01979,12480.85648,-53746.7812,-0.02,0.094,-0.986,192,0,0,0,0,0,0,0,0,0,0
 2023-06-24 15:07:29.427,-41875.38974,32124.46357,4709.825481,25854.95572,21045.64262,-62130.56292,13525.46525,-54282.15018,-0.02,0.094,-0.986,192,0,0,0,0,0,0,0,0,0,0
 2023-06-24 15:07:29.427,-41622.61386,32342.84012,4907.77253,26116.7617,21251.09985,-61931.87826,13733.80586,-54168.53627,-0.02,0.094,-0.986,192,0,0,0,0,0,0,0,0,0,0
 2023-06-24 15:07:29.427,-41531.01641,31323.3547,3872.305616,25144.9749,20218.62807,-60888.18591,12709.06779,-53527.59999,-0.02,0.094,-0.986,192,0,0,0,0,0,0,0,0,0,0
 2023-06-24 15:07:29.427,-41734.64081,30566.88226,3135.100381,24362.55209,19478.15948,-60497.76798,11974.34359,-53285.41884,-0.02,0.094,-0.986,192,0,0,0,0,0,0,0,0,0,0
 2023-06-24 15:07:29.427,-41942.40027,31088.01318,3680.28178,24828.11658,20016.43419,-61250.41828,12502.35885,-53736.32058,-0.02,0.094,-0.986,192,0,0,0,0,0,0,0,0,0,0
 2023-06-24 15:07:29.427,-41890.99126,32088.14199,4685.931466,25811.32511,21020.09458,-62128.61832,13497.59263,-54280.4291,-0.02,0.094,-0.986,192,0,0,0,0,0,0,0,0,0,0
 2023-06-24 15:07:29.427,-41640.4282,32321.13657,4898.228335,26092.57711,21242.0921,-61946.11632,13721.19948,-54180.04741,-0.016,0.092,-0.986,192,255,128,2,224,225,48,0,0,0,0
 2023-06-24 15:07:29.427,-41542.30404,31315.64335,3877.938256,25143.18677,20227.50172,-60904.14505,12716.55562,-53540.13932,-0.016,0.092,-0.986,192,0,0,0,0,0,0,0,0,0,0
 2023-06-24 15:07:29.427,-41743.02271,30543.39058,3123.343363,24343.53076,19467.94474,-60496.0916,11967.16868,-53286.91641,-0.016,0.092,-0.986,192,0,0,0,0,0,0,0,0,0,0
 2023-06-24 15:07:29.427,-41957.82297,31019.37098,3621.004954,24756.52394,19959.75017,-61241.00819,12461.11989,-53735.82885,-0.016,0.092,-0.986,192,0,0,0,0,0,0,0,0,0,0
 2023-06-24 15:07:29.427,-41904.67053,32066.34904,4667.26776,25783.20662,21002.88373,-62123.07508,13501.70535,-54281.47963,-0.016,0.092,-0.986,192,0,0,0,0,0,0,0,0,0,0
 2023-06-24 15:07:29.427,-41654.95684,32314.85573,4891.835736,26088.93378,21236.23594,-61959.90735,13717.77966,-54189.54691,-0.016,0.092,-0.986,192,0,0,0,0,0,0,0,0,0,0
 2023-06-24 15:07:29.427,-41553.47992,31327.8474,3884.822593,25152.44039,20231.078,-60921.73587,12711.21355,-53549.39294,-0.016,0.092,-0.986,192,0,0,0,0,0,0,0,0,0,0
 2023-06-24 15:07:29.427,-41749.59412,30559.26032,3129.892424,24357.99233,19471.27515,-60497.09743,11965.15703,-53283.45189,-0.016,0.092,-0.986,192,0,0,0,0,0,0,0,0,0,0
 2023-06-24 15:07:29.427,-41964.77437,31033.05024,3624.514177,24779.36742,19962.87941,-61228.73708,12449.34052,-53723.58009,-0.016,0.092,-0.986,192,0,0,0,0,0,0,0,0,0,0
 2023-06-24 15:07:29.427,-41918.79683,32076.00499,4669.882914,25803.25613,21007.5776,-62118.38122,13496.51974,-54272.98597,-0.016,0.092,-0.986,192,0,0,0,0,0,0,0,0,0,0
 2023-06-24 15:07:29.427,-41672.07827,32329.94316,4901.268172,26097.02511,21242.56149,-61970.99381,13734.54347,-54190.88801,-0.016,0.092,-0.986,192,0,0,0,0,0,0,0,0,0,0
 2023-06-24 15:07:29.427,-41563.78407,31367.61115,3917.746713,25167.46076,20253.40739,-60933.44819,12756.78876,-53552.54454,-0.018,0.09,-0.988,192,255,112,2,208,225,32,0,0,0,0
 2023-06-24 15:07:29.427,-41747.44835,30636.86557,3197.327637,24424.26526,19546.73464,-60485.47453,12041.75646,-53272.18661,-0.018,0.09,-0.988,192,0,0,0,0,0,0,0,0,0,0
 2023-06-24 15:07:29.427,-41967.56833,31068.79068,3646.374183,24816.96305,19998.08341,-61211.32507,12471.73696,-53709.23027,-0.018,0.09,-0.988,192,0,0,0,0,0,0,0,0,0,0
 2023-06-24 15:07:29.427,-41931.93965,32046.50069,4627.504006,25771.80723,20974.76524,-62117.01776,13458.45472,-54270.8402,-0.018,0.09,-0.988,192,0,0,0,0,0,0,0,0,0,0
 2023-06-24 15:07:29.427,-41685.31051,32300.19299,4865.371271,26062.51401,21214.17477,-61985.96948,13699.56299,-54199.89576,-0.018,0.09,-0.988,192,0,0,0,0,0,0,0,0,0,0
 2023-06-24 15:07:29.427,-41567.00272,31371.67917,3918.551376,25189.65604,20268.11484,-60946.74748,12745.18821,-53562.98281,-0.018,0.09,-0.988,192,0,0,0,0,0,0,0,0,0,0
 2023-06-24 15:07:29.427,-41749.10238,30603.24855,3163.397689,24408.95431,19511.30712,-60482.23352,11990.97329,-53275.58407,-0.018,0.09,-0.988,192,0,0,0,0,0,0,0,0,0,0
 2023-06-24 15:07:29.427,-41975.65967,30974.60043,3560.834057,24725.05268,19902.64146,-61202.22791,12384.85573,-53709.47614,-0.018,0.09,-0.988,192,0,0,0,0,0,0,0,0,0,0
 2023-06-24 15:07:29.427,-41934.93479,32028.0158,4623.972431,25752.74119,20955.78861,-62106.55714,13446.09421,-54267.66625,-0.018,0.09,-0.988,192,0,0,0,0,0,0,0,0,0,0
 2023-06-24 15:07:29.427,-41684.90817,32332.22304,4912.444045,26089.35846,21237.24177,-61987.13177,13737.35979,-54205.21548,-0.018,0.09,-0.988,192,0,0,0,0,0,0,0,0,0,0
 2023-06-24 15:07:29.427,-41576.16694,31323.60057,3885.42609,25147.59006,20219.74566,-60963.57834,12712.84523,-53580.8642,-0.022,0.094,-0.982,192,255,80,2,240,225,80,0,0,0,0
 2023-06-24 15:07:29.427,-41757.84192,30550.56549,3125.22091,24364.96608,19462.91559,-60485.00514,11941.84416,-53283.16132,-0.022,0.094,-0.982,192,0,0,0,0,0,0,0,0,0,0
 2023-06-24 15:07:29.427,-41977.31369,30973.39344,3568.366595,24724.80681,19894.03604,-61187.43106,12379.60307,-53703.26235,-0.022,0.094,-0.982,192,0,0,0,0,0,0,0,0,0,0
 2023-06-24 15:07:29.427,-41945.306,31980.98773,4580.230067,25709.46821,20902.5244,-62104.23256,13397.50152,-54268.56032,-0.022,0.094,-0.982,192,0,0,0,0,0,0,0,0,0,0
 2023-06-24 15:07:29.427,-41694.74294,32295.20855,4876.12246,26067.52081,21205.85992,-62001.07926,13697.73015,-54213.23975,-0.022,0.094,-0.982,192,0,0,0,0,0,0,0,0,0,0
 2023-06-24 15:07:29.427,-41576.56927,31335.80462,3899.731207,25162.29751,20231.30151,-60977.32466,12719.79662,-53585.60277,-0.022,0.094,-0.982,192,0,0,0,0,0,0,0,0,0,0
 2023-06-24 15:07:29.906,-41758.46776,30523.16225,3100.812805,24335.26061,19434.68534,-60482.45704,11924.72272,-53277.7969,-0.022,0.094,-0.982,192,0,0,0,0,0,0,0,0,0,0
 2023-06-24 15:07:29.906,-41982.18637,30945.83374,3541.678612,24705.94194,19878.1663,-61171.67308,12371.82467,-53690.76773,-0.022,0.094,-0.982,192,0,0,0,0,0,0,0,0,0,0
 2023-06-24 15:07:29.906,-41957.77827,31945.67197,4539.862816,25681.1709,20882.45253,-62098.48816,13376.2003,-54263.35237,-0.022,0.094,-0.982,192,0,0,0,0,0,0,0,0,0,0
 2023-06-24 15:07:29.906,-41707.30462,32283.78681,4857.324643,26058.26718,21208.43037,-62010.5564,13694.71266,-54218.09008,-0.022,0.094,-0.982,192,0,0,0,0,0,0,0,0,0,0
 2023-06-24 15:07:29.906,-41583.78888,31359.34101,3909.856547,25193.23232,20267.35488,-60988.18761,12755.35825,-53591.68245,-0.018,0.09,-0.992,192,255,112,2,208,225,0,0,0,0,0
 2023-06-24 15:07:29.906,-41767.78844,30514.98151,3077.209363,24329.09153,19433.43364,-60479.03722,11923.06869,-53274.84647,-0.018,0.09,-0.992,192,0,0,0,0,0,0,0,0,0,0
 2023-06-24 15:07:29.906,-42002.21354,30864.22752,3446.616643,24618.54662,19795.80013,-61165.03461,12288.07268,-53686.90088,-0.018,0.09,-0.992,192,0,0,0,0,0,0,0,0,0,0
 2023-06-24 15:07:29.906,-41980.35353,31897.41455,4480.943618,25625.00097,20832.78696,-62097.25882,13329.44045,-54261.58658,-0.018,0.09,-0.992,192,0,0,0,0,0,0,0,0,0,0
 2023-06-24 15:07:29.906,-41734.57375,32227.43806,4791.230534,25986.71925,21140.70459,-62029.37657,13624.55054,-54229.60123,-0.018,0.09,-0.992,192,0,0,0,0,0,0,0,0,0,0
 2023-06-24 15:07:29.906,-41599.50216,31362.4926,3908.649553,25167.90779,20253.04976,-61007.94655,12738.23681,-53604.06531,-0.018,0.09,-0.992,192,0,0,0,0,0,0,0,0,0,0
 2023-06-24 15:07:29.906,-41785.35691,30451.74842,3011.092903,24240.22099,19353.79438,-60488.11203,11850.87256,-53283.22837,-0.018,0.09,-0.992,192,0,0,0,0,0,0,0,0,0,0
 2023-06-24 15:07:29.906,-42012.27182,30835.30436,3414.296021,24570.82564,19758.45036,-61154.79751,12256.55672,-53683.16814,-0.018,0.09,-0.992,192,0,0,0,0,0,0,0,0,0,0
 2023-06-24 15:07:29.906,-41984.64507,31932.77501,4512.280764,25654.79584,20860.16784,-62082.909,13341.46569,-54253.13762,-0.018,0.09,-0.992,192,0,0,0,0,0,0,0,0,0,0
 2023-06-24 15:07:29.906,-41743.20152,32246.68291,4806.496776,25996.59872,21149.51118,-62032.08113,13634.54177,-54231.38937,-0.018,0.09,-0.992,192,0,0,0,0,0,0,0,0,0,0
 2023-06-24 15:07:29.906,-41601.06678,31421.47886,3960.952635,25222.24489,20301.6201,-61016.35081,12784.46022,-53608.22274,-0.02,0.092,-0.994,192,255,96,2,224,224,240,0,0,0,0
 2023-06-24 15:07:29.906,-41771.29767,30564.26711,3117.643668,24363.08853,19462.73678,-60473.65045,11950.74015,-53272.94657,-0.02,0.092,-0.994,192,0,0,0,0,0,0,0,0,0,0
 2023-06-24 15:07:29.906,-42007.37679,30856.67263,3433.876149,24609.20359,19784.57955,-61137.58667,12267.48672,-53674.4286,-0.02,0.092,-0.994,192,0,0,0,0,0,0,0,0,0,0
 2023-06-24 15:07:29.906,-41995.99975,31856.57792,4444.219702,25586.33245,20787.81525,-62084.74184,13279.08197,-54260.17842,-0.02,0.092,-0.994,192,0,0,0,0,0,0,0,0,0,0
 2023-06-24 15:07:29.906,-41748.633,32218.92205,4793.800985,25979.27612,21132.30033,-62046.43095,13638.60978,-54247.30381,-0.02,0.092,-0.994,192,0,0,0,0,0,0,0,0,0,0
 2023-06-24 15:07:29.906,-41604.30778,31379.36817,3938.690297,25209.07971,20287.85143,-61038.6355,12778.87228,-53631.60266,-0.02,0.092,-0.994,192,0,0,0,0,0,0,0,0,0,0
 2023-06-24 15:07:29.906,-41775.5892,30481.4986,3054.164714,24317.82625,19406.96918,-60485.49688,11898.77235,-53288.81631,-0.02,0.092,-0.994,192,0,0,0,0,0,0,0,0,0,0
 2023-06-24 15:07:29.906,-42007.57796,30788.3657,3389.530288,24559.82859,19729.68366,-61134.05509,12226.38187,-53676.86494,-0.02,0.092,-0.994,192,0,0,0,0,0,0,0,0,0,0
 2023-06-24 15:07:29.906,-41992.80345,31852.26403,4462.816353,25590.1993,20801.62863,-62078.28219,13311.26849,-54257.22799,-0.02,0.092,-0.994,192,0,0,0,0,0,0,0,0,0,0
 2023-06-24 15:07:29.906,-41738.82058,32285.88787,4875.429556,26068.34782,21221.50615,-62049.24727,13724.08285,-54247.28146,-0.02,0.092,-0.994,192,0,0,0,0,0,0,0,0,0,0
 2023-06-24 15:07:29.906,-41599.16688,31402.7481,3964.931245,25239.0534,20314.80763,-61054.1029,12811.52818,-53640.4316,-0.02,0.092,-0.99,192,255,96,2,224,225,16,0,0,0,0
 2023-06-24 15:07:29.906,-41778.02554,30446.40636,3016.792597,24262.90801,19365.52904,-60490.906,11859.67915,-53291.74439,-0.02,0.092,-0.99,192,0,0,0,0,0,0,0,0,0,0
 2023-06-24 15:07:29.906,-42011.75773,30753.29581,3347.710174,24513.00168,19691.70805,-61126.07552,12181.83484,-53672.64046,-0.02,0.092,-0.99,192,0,0,0,0,0,0,0,0,0,0
 2023-06-24 15:07:29.906,-42000.62656,31804.20778,4402.04196,25527.88264,20740.31779,-62077.29871,13235.45137,-54258.32322,-0.02,0.092,-0.99,192,0,0,0,0,0,0,0,0,0,0
 2023-06-24 15:07:29.906,-41752.87983,32213.66939,4794.784462,25965.99918,21132.61326,-62067.24043,13625.80223,-54261.78774,-0.02,0.092,-0.99,192,0,0,0,0,0,0,0,0,0,0
 2023-06-24 15:07:29.906,-41604.33013,31373.89199,3932.18594,25177.51904,20273.90394,-61076.16408,12765.30478,-53656.4131,-0.02,0.092,-0.99,192,0,0,0,0,0,0,0,0,0,0
 2023-06-24 15:07:29.906,-41763.58631,30515.13797,3082.260857,24305.73396,19421.2743,-60482.88172,11915.55851,-53285.97764,-0.02,0.092,-0.99,192,0,0,0,0,0,0,0,0,0,0
 2023-06-24 15:07:29.906,-41997.78789,30790.71263,3375.962779,24533.67705,19718.03841,-61107.00948,12210.93681,-53659.43058,-0.02,0.092,-0.99,192,0,0,0,0,0,0,0,0,0,0
 2023-06-24 15:07:29.906,-41994.61394,31812.50028,4399.069178,25527.07798,20746.50922,-62070.21321,13228.74585,-54252.60118,-0.02,0.092,-0.99,192,0,0,0,0,0,0,0,0,0,0
 2023-06-24 15:07:29.906,-41745.59316,32269.95108,4837.833922,26008.53455,21179.70838,-62074.5718,13663.46492,-54265.31932,-0.02,0.092,-0.99,192,0,0,0,0,0,0,0,0,0,0
 2023-06-24 15:07:29.906,-41590.53911,31452.7266,3998.011827,25255.10195,20343.172,-61086.1106,12823.64283,-53663.29743,-0.012,0.092,-0.992,192,255,160,2,224,225,0,0,0,0,0
 2023-06-24 15:07:29.906,-41751.98576,30527.05145,3083.110223,24328.26451,19431.93608,-60480.95947,11921.2582,-53290.09036,-0.012,0.092,-0.992,192,0,0,0,0,0,0,0,0,0,0
 2023-06-24 15:07:29.906,-41998.74902,30705.23956,3283.292447,24448.09222,19625.16691,-61100.77335,12129.86703,-53665.55496,-0.012,0.092,-0.992,192,0,0,0,0,0,0,0,0,0,0
 2023-06-24 15:07:29.907,-41992.26701,31765.53926,4347.928387,25483.53678,20691.21101,-62061.27251,13192.24545,-54257.49621,-0.012,0.092,-0.992,192,0,0,0,0,0,0,0,0,0,0
 2023-06-24 15:07:29.907,-41749.86234,32189.4848,4756.182999,25955.3821,21100.15852,-62085.52415,13579.57883,-54282.12783,-0.012,0.092,-0.992,192,0,0,0,0,0,0,0,0,0,0
 2023-06-24 15:07:29.907,-41592.93075,31391.66163,3944.054716,25211.15842,20287.06912,-61104.6402,12770.87036,-53682.87756,-0.012,0.092,-0.992,192,0,0,0,0,0,0,0,0,0,0
 2023-06-24 15:07:29.907,-41750.80112,30462.99135,3028.974298,24274.97796,19372.01105,-60483.19465,11860.46146,-53298.40521,-0.012,0.092,-0.992,192,0,0,0,0,0,0,0,0,0,0
 2023-06-24 15:07:29.907,-41987.01435,30727.68071,3317.624726,24476.18836,19652.99483,-61079.6733,12142.8534,-53657.7542,-0.012,0.092,-0.992,192,0,0,0,0,0,0,0,0,0,0
 2023-06-24 15:07:29.907,-41989.04836,31769.16024,4367.44146,25499.36181,20701.09048,-62047.57089,13189.89851,-54255.66337,-0.012,0.092,-0.992,192,0,0,0,0,0,0,0,0,0,0
 2023-06-24 15:07:29.907,-41751.42697,32193.28459,4777.126584,25963.20521,21108.27221,-62090.32978,13587.49134,-54291.51556,-0.012,0.092,-0.992,192,0,0,0,0,0,0,0,0,0,0
 2023-06-24 15:07:29.907,-41577.55275,31487.77413,4052.617139,25299.53722,20383.51689,-61107.79179,12865.55235,-53689.04664,-0.018,0.092,-0.988,192,255,112,2,224,225,32,0,0,0,0
 2023-06-24 15:07:29.907,-41727.5106,30551.03487,3122.5387,24355.06426,19459.67459,-60469.04599,11950.13666,-53293.46547,-0.018,0.092,-0.988,192,0,0,0,0,0,0,0,0,0,0
 2023-06-24 15:07:29.907,-41973.26803,30719.67879,3311.500348,24471.76271,19650.98317,-61060.47315,12146.96612,-53650.51224,-0.018,0.092,-0.988,192,0,0,0,0,0,0,0,0,0,0
 2023-06-24 15:07:29.907,-41985.62854,31715.24784,4309.483386,25452.71372,20656.36464,-62041.53592,13138.15423,-54256.7139,-0.018,0.092,-0.988,192,0,0,0,0,0,0,0,0,0,0
 2023-06-24 15:07:29.907,-41743.02271,32192.23406,4770.331653,25965.59685,21120.90094,-62099.38223,13605.12687,-54300.83624,-0.018,0.092,-0.988,192,0,0,0,0,0,0,0,0,0,0
 2023-06-24 15:07:29.907,-41575.29522,31413.49929,3974.117812,25236.14767,20322.51898,-61134.88211,12815.21622,-53714.23706,-0.018,0.092,-0.988,192,0,0,0,0,0,0,0,0,0,0
 2023-06-24 15:07:29.907,-41729.56696,30428.07793,2999.559402,24248.49114,19352.90031,-60489.16256,11852.19131,-53315.37018,-0.018,0.092,-0.988,192,0,0,0,0,0,0,0,0,0,0
 2023-06-24 15:07:29.907,-41964.32733,30683.80424,3277.726862,24446.48289,19628.8773,-61058.19327,12121.59689,-53656.12252,-0.018,0.092,-0.988,192,0,0,0,0,0,0,0,0,0,0
 2023-06-24 15:07:29.907,-41972.37396,31735.56557,4333.399753,25470.68452,20683.05262,-62035.38919,13168.44084,-54259.23964,-0.018,0.092,-0.988,192,0,0,0,0,0,0,0,0,0,0
 2023-06-24 15:07:29.907,-41730.12575,32224.48763,4803.255773,26001.20318,21157.5578,-62104.34432,13641.87314,-54311.65449,-0.018,0.092,-0.988,192,0,0,0,0,0,0,0,0,0,0
 2023-06-24 15:07:29.907,-41560.05133,31462.76253,4019.983592,25290.75298,20377.88425,-61144.13573,12867.13932,-53728.83275,-0.016,0.09,-0.992,192,255,128,2,208,225,0,0,0,0,0
 2023-06-24 15:07:29.907,-41712.64669,30468.31107,3033.243481,24292.63583,19395.03335,-60482.50174,11882.47793,-53320.19816,-0.016,0.09,-0.992,192,0,0,0,0,0,0,0,0,0,0
 2023-06-24 15:07:29.907,-41954.26905,30673.0307,3262.214752,24433.1836,19615.28744,-61044.4246,12113.88554,-53656.52486,-0.016,0.09,-0.992,192,0,0,0,0,0,0,0,0,0,0
 2023-06-24 15:07:29.907,-41975.14558,31683.57541,4280.44847,25419.76725,20636.49394,-62033.26577,13130.50993,-54265.6993,-0.016,0.09,-0.992,192,0,0,0,0,0,0,0,0,0,0
 2023-06-24 15:07:29.907,-41733.14324,32207.25443,4783.116851,25986.29457,21143.85618,-62118.60473,13614.82753,-54327.45717,-0.016,0.09,-0.992,192,0,0,0,0,0,0,0,0,0,0
 2023-06-24 15:07:29.907,-41548.71899,31520.34062,4074.074814,25350.70036,20434.14359,-61158.23968,12914.2568,-53742.62378,-0.016,0.09,-0.992,192,0,0,0,0,0,0,0,0,0,0
 2023-06-24 15:07:29.907,-41695.72642,30515.94264,3078.751633,24342.52493,19436.24996,-60479.4172,11925.7509,-53324.31088,-0.016,0.09,-0.992,192,0,0,0,0,0,0,0,0,0,0
 2023-06-24 15:07:29.907,-41929.52566,30754.5028,3339.194159,24524.28931,19693.47384,-61020.64234,12178.59384,-53647.4724,-0.016,0.09,-0.992,192,0,0,0,0,0,0,0,0,0,0
 2023-06-24 15:07:29.907,-41946.93767,31792.42841,4383.869992,25516.39384,20728.65018,-62006.42133,13209.72451,-54254.97046,-0.016,0.09,-0.992,192,0,0,0,0,0,0,0,0,0,0
 2023-06-24 15:07:29.907,-41710.188,32286.2902,4866.734727,26034.61904,21201.68015,-62109.8205,13692.90217,-54326.22782,-0.016,0.09,-0.992,192,0,0,0,0,0,0,0,0,0,0
 2023-06-24 15:07:29.907,-41534.30212,31513.5904,4078.835735,25317.50802,20410.92013,-61169.25909,12902.65625,-53753.7773,-0.02,0.09,-0.994,192,255,96,2,208,224,240,0,0,0,0
 2023-06-24 15:07:29.907,-41672.45825,30534.7181,3109.708799,24338.09928,19445.50359,-60473.44929,11945.01811,-53321.69572,-0.02,0.09,-0.994,192,0,0,0,0,0,0,0,0,0,0
 2023-06-24 15:07:29.907,-41912.22541,30720.32699,3317.356505,24464.92308,19649.3962,-61006.98543,12157.27027,-53640.56571,-0.02,0.09,-0.994,192,0,0,0,0,0,0,0,0,0,0
 2023-06-24 15:07:29.907,-41938.82399,31714.21966,4316.099503,25442.74484,20656.45405,-62004.1638,13151.43116,-54253.78582,-0.02,0.09,-0.994,192,0,0,0,0,0,0,0,0,0,0
 2023-06-24 15:07:29.907,-41708.71278,32179.98531,4764.095517,25947.80486,21110.038,-62130.9876,13598.66722,-54342.70106,-0.02,0.09,-0.994,192,0,0,0,0,0,0,0,0,0,0
 2023-06-24 15:07:29.907,-41528.04363,31428.81023,3993.340313,25248.75405,20341.07093,-61197.98108,12838.93142,-53775.65965,-0.02,0.09,-0.994,192,0,0,0,0,0,0,0,0,0,0
 2023-06-24 15:07:29.907,-41659.606,30457.76104,3029.175464,24281.66113,19384.84095,-60484.87103,11882.41087,-53331.6199,-0.02,0.09,-0.994,192,0,0,0,0,0,0,0,0,0,0
 2023-06-24 15:07:29.907,-41903.7541,30595.15722,3192.276143,24371.58219,19547.80752,-61006.65015,12038.4484,-53646.08659,-0.02,0.09,-0.994,192,0,0,0,0,0,0,0,0,0,0
 2023-06-24 15:07:29.907,-41938.22049,31566.63109,4176.468155,25306.93564,20525.8081,-62007.56127,13012.8727,-54263.28531,-0.02,0.09,-0.994,192,0,0,0,0,0,0,0,0,0,0
 2023-06-24 15:07:29.907,-41705.33767,32124.28476,4715.413417,25897.0217,21075.21398,-62143.83985,13561.40686,-54356.38033,-0.02,0.09,-0.994,192,0,0,0,0,0,0,0,0,0,0
 2023-06-24 15:07:29.907,-41512.71033,31477.02294,4048.437363,25307.29327,20409.2214,-61210.9898,12896.44246,-53789.31657,-0.016,0.09,-0.992,192,255,128,2,208,225,0,0,0,0,0
 2023-06-24 15:07:29.907,-41644.16094,30467.05937,3042.787676,24299.56487,19406.96918,-60487.26266,11902.0357,-53340.89587,-0.016,0.09,-0.992,192,0,0,0,0,0,0,0,0,0,0
 2023-06-24 15:07:29.907,-41891.10302,30575.26416,3170.684358,24352.38205,19530.64138,-60997.19536,12033.21809,-53647.89708,-0.016,0.09,-0.992,192,0,0,0,0,0,0,0,0,0,0
 2023-06-24 15:07:29.907,-41920.89789,31605.70194,4216.187205,25340.64208,20565.57185,-61991.73623,13064.57228,-54260.06666,-0.016,0.09,-0.992,192,0,0,0,0,0,0,0,0,0,0
 2023-06-24 15:07:29.907,-41692.9101,32139.75217,4736.647575,25901.96143,21080.60075,-62148.33255,13564.89373,-54367.17622,-0.016,0.09,-0.992,192,0,0,0,0,0,0,0,0,0,0
 2023-06-24 15:07:29.907,-41515.10197,31384.79965,3957.68928,25213.08067,20307.67742,-61243.35512,12791.56808,-53820.45255,-0.016,0.09,-0.992,192,0,0,0,0,0,0,0,0,0,0
 2023-06-24 15:07:29.907,-41642.66338,30378.32294,2950.944358,24218.85272,19311.19195,-60507.46864,11796.31195,-53364.2758,-0.016,0.09,-0.992,192,0,0,0,0,0,0,0,0,0,0
 2023-06-24 15:07:29.907,-41881.2906,30545.80457,3142.945843,24319.32382,19494.25274,-60998.40236,11983.61957,-53658.98355,-0.016,0.09,-0.992,192,0,0,0,0,0,0,0,0,0,0
 2023-06-24 15:07:29.907,-41910.12435,31602.55034,4206.441844,25334.71886,20556.07236,-61992.07151,13042.64522,-54269.94613,-0.016,0.09,-0.992,192,0,0,0,0,0,0,0,0,0,0
 2023-06-24 15:07:29.907,-41680.79545,32160.56164,4745.163589,25933.00801,21101.23141,-62161.25186,13591.4029,-54383.22477,-0.016,0.09,-0.992,192,0,0,0,0,0,0,0,0,0,0
 2023-06-24 15:07:29.907,-41502.47324,31374.33903,3938.109152,25206.19633,20293.61818,-61269.41726,12786.11425,-53844.90536,-0.014,0.096,-0.994,192,255,144,3,0,224,240,0,0,0,0
 2023-06-24 15:07:29.907,-41622.12212,30374.76902,2947.658652,24205.57579,19298.69733,-60515.04588,11792.42275,-53376.72572,-0.014,0.096,-0.994,192,0,0,0,0,0,0,0,0,0,0
 2023-06-24 15:07:29.907,-41854.80378,30560.53437,3158.346195,24332.86897,19498.8125,-60983.5608,11989.1181,-53656.23428,-0.014,0.096,-0.994,192,0,0,0,0,0,0,0,0,0,0
 2023-06-24 15:07:29.907,-41895.95334,31551.52131,4161.693652,25271.55283,20487.63132,-61987.60116,12986.09531,-54273.433,-0.014,0.096,-0.994,192,0,0,0,0,0,0,0,0,0,0
 2023-06-24 15:07:29.907,-41668.21142,32154.57137,4747.756391,25895.63589,21070.94479,-62172.00305,13568.3806,-54394.44535,-0.014,0.096,-0.994,192,0,0,0,0,0,0,0,0,0,0
 2023-06-24 15:07:29.907,-41472.54425,31509.16475,4077.829907,25315.16109,20409.51197,-61274.89344,12900.7787,-53849.12984,-0.014,0.096,-0.994,192,0,0,0,0,0,0,0,0,0,0
 2023-06-24 15:07:29.907,-41595.5012,30429.19551,2999.335885,24247.3512,19341.36681,-60512.56484,11840.92603,-53379.13971,-0.014,0.096,-0.994,192,0,0,0,0,0,0,0,0,0,0
 2023-06-24 15:07:29.907,-41843.11382,30491.7357,3083.736072,24249.3405,19421.05078,-60982.39851,11927.96373,-53661.73281,-0.014,0.096,-0.994,192,0,0,0,0,0,0,0,0,0,0
 2023-06-24 15:07:29.907,-41880.21772,31533.68462,4134.513931,25250.00575,20470.57694,-61981.81206,12974.80768,-54274.84116,-0.014,0.096,-0.994,192,0,0,0,0,0,0,0,0,0,0
 2023-06-24 15:07:29.907,-41650.19591,32145.69773,4730.009106,25899.10041,21072.71058,-62180.72023,13560.6469,-54404.43658,-0.014,0.096,-0.994,192,0,0,0,0,0,0,0,0,0,0
 2023-06-24 15:07:29.907,-41452.22651,31478.14053,4043.184703,25294.75394,20389.84244,-61297.84868,12864.07713,-53869.40287,-0.02,0.092,-0.99,192,255,96,2,224,225,16,0,0,0,0
 2023-06-24 15:07:29.907,-41566.42158,30413.6834,2987.221239,24224.12774,19327.48638,-60520.20914,11808.67246,-53386.62754,-0.02,0.092,-0.99,192,0,0,0,0,0,0,0,0,0,0
 2023-06-24 15:07:29.907,-41809.76502,30493.97087,3092.341494,24243.84198,19429.6562,-60971.66967,11918.7101,-53655.25081,-0.02,0.092,-0.99,192,0,0,0,0,0,0,0,0,0,0
 2023-06-24 15:07:29.907,-41846.86891,31559.21031,4167.214533,25265.20494,20503.72458,-61970.07739,12989.33631,-54267.55449,-0.02,0.092,-0.99,192,0,0,0,0,0,0,0,0,0,0
 2023-06-24 15:07:29.907,-41618.81407,32168.09418,4757.881732,25921.65332,21101.43257,-62185.57056,13580.89758,-54409.42102,-0.02,0.092,-0.99,192,0,0,0,0,0,0,0,0,0,0
 2023-06-24 15:07:29.907,-41414.67558,31526.64382,4093.25261,25346.00649,20442.5255,-61310.9021,12920.42588,-53880.48934,-0.02,0.092,-0.99,192,0,0,0,0,0,0,0,0,0,0
 2023-06-24 15:07:29.907,-41519.28175,30476.08947,3048.956758,24297.06148,19395.94977,-60517.34811,11875.97357,-53389.26505,-0.02,0.092,-0.99,192,0,0,0,0,0,0,0,0,0,0
 2023-06-24 15:07:29.907,-41754.64562,30595.15722,3187.537573,24365.9272,19532.96596,-60949.49674,12025.08205,-53645.79602,-0.02,0.092,-0.99,192,0,0,0,0,0,0,0,0,0,0
 2023-06-24 15:07:29.907,-41812.11195,31518.82071,4116.319611,25258.99115,20467.89473,-61965.96467,12954.04291,-54271.5331,-0.02,0.092,-0.99,192,0,0,0,0,0,0,0,0,0,0
 2023-06-24 15:07:29.907,-41592.48371,32105.86692,4688.658379,25867.69621,21038.22184,-62202.96022,13515.78695,-54427.23536,-0.02,0.092,-0.99,192,0,0,0,0,0,0,0,0,0,0
 2023-06-24 15:07:29.907,-41383.96429,31509.05299,4072.085508,25321.53133,20418.89971,-61334.93022,12905.80784,-53902.05877,-0.022,0.096,-0.992,192,255,80,3,0,225,0,0,0,0,0
 2023-06-24 15:07:29.907,-41490.448,30427.0721,2996.07253,24251.48627,19344.94309,-60532.97198,11828.92315,-53405.17949,-0.022,0.096,-0.992,192,0,0,0,0,0,0,0,0,0,0
 2023-06-24 15:07:29.907,-41731.01982,30504.40913,3098.644686,24276.47552,19443.58134,-60956.82811,11932.52348,-53657.39657,-0.022,0.096,-0.992,192,0,0,0,0,0,0,0,0,0,0
 2023-06-24 15:07:29.907,-41790.22959,31458.33688,4064.575322,25195.95923,20405.68982,-61975.44181,12890.09457,-54282.08313,-0.022,0.096,-0.992,192,0,0,0,0,0,0,0,0,0,0
 2023-06-24 15:07:29.907,-41567.74033,32095.94275,4686.512612,25853.01111,21028.36472,-62224.19437,13517.7986,-54442.72512,-0.022,0.096,-0.992,192,0,0,0,0,0,0,0,0,0,0
 2023-06-24 15:07:29.907,-41351.21898,31530.2648,4098.818195,25342.31846,20445.94532,-61362.51227,12930.50652,-53921.10245,-0.022,0.096,-0.992,192,0,0,0,0,0,0,0,0,0,0
 2023-06-24 15:07:29.907,-41451.95829,30421.3724,2998.75474,24236.80118,19335.4436,-60545.75718,11819.66952,-53416.78004,-0.022,0.096,-0.992,192,0,0,0,0,0,0,0,0,0,0
 2023-06-24 15:07:29.907,-41693.17832,30470.34508,3072.604903,24229.60391,19400.48717,-60955.3529,11878.2758,-53660.36936,-0.022,0.096,-0.992,192,0,0,0,0,0,0,0,0,0,0
 2023-06-24 15:07:29.907,-41739.28997,31539.8537,4153.714079,25253.24675,20474.95788,-61959.75089,12959.16146,-54272.85186,-0.022,0.096,-0.992,192,0,0,0,0,0,0,0,0,0,0
 2023-06-24 15:07:29.908,-41524.15443,32131.63848,4729.383258,25861.25891,21045.57556,-62231.03401,13543.9725,-54450.68234,-0.022,0.096,-0.992,192,0,0,0,0,0,0,0,0,0,0
 2023-06-24 15:07:29.908,-41312.88574,31541.97711,4117.504253,25331.54492,20434.00948,-61385.10989,12931.51235,-53940.9508,-0.022,0.092,-0.992,192,255,80,2,224,225,0,0,0,0,0
 2023-06-24 15:07:29.908,-41405.35491,30475.57538,3055.461115,24291.38414,19381.26467,-60547.07593,11860.21559,-53422.09976,-0.022,0.092,-0.992,192,0,0,0,0,0,0,0,0,0,0
 2023-06-24 15:07:29.908,-41650.73236,30475.1954,3077.365825,24241.62915,19399.28018,-60942.29948,11883.88609,-53658.29064,-0.022,0.092,-0.992,192,0,0,0,0,0,0,0,0,0,0
 2023-06-24 15:07:29.908,-41709.76331,31476.91118,4090.369235,25186.01271,20408.50614,-61954.85585,12903.68443,-54276.98693,-0.022,0.092,-0.992,192,0,0,0,0,0,0,0,0,0,0
 2023-06-24 15:07:29.908,-41494.27015,32119.50149,4716.240432,25854.66514,21036.32194,-62236.44313,13524.59354,-54460.45005,-0.022,0.092,-0.992,192,0,0,0,0,0,0,0,0,0,0
 2023-06-24 15:07:29.908,-41285.14722,31526.62146,4099.533451,25325.82287,20431.01435,-61407.104,12914.72619,-53960.66504,-0.022,0.092,-0.992,192,0,0,0,0,0,0,0,0,0,0
 2023-06-24 15:07:29.908,-41377.43758,30429.30727,3004.856766,24236.13062,19339.3328,-60563.61622,11825.70449,-53435.91314,-0.022,0.092,-0.992,192,0,0,0,0,0,0,0,0,0,0
