 Timestamp_formatted, EXG Channel 0, EXG Channel 1, EXG Channel 2, EXG Channel 3, EXG Channel 4, EXG Channel 5, EXG Channel 6, EXG Channel 7, Accel Channel 0, Accel Channel 1, Accel Channel 2, Other, Other.1, Other.2, Other.3, Other.4, Other.5, Other.6, Analog Channel 0, Analog Channel 1, Analog Channel 2, Other.7
 2023-06-24 15:08:58.277,-36983.28578,29005.5235,1723.498311,21597.46249,17733.49407,-63259.39307,9552.666194,-56272.72949,-0.016,0.098,-0.988,192,0,0,0,0,0,0,0,0,0,0
 2023-06-24 15:08:58.277,-36888.38028,29840.69644,2558.447726,22422.53243,18567.81764,-63950.66547,10399.35027,-56690.41654,-0.016,0.098,-0.988,192,0,0,0,0,0,0,0,0,0,0
 2023-06-24 15:08:58.277,-36654.8269,29981.64654,2678.543649,22596.07137,18690.75223,-63695.14033,10511.77955,-56556.48488,-0.024,0.098,-0.99,192,255,64,3,16,225,16,0,0,0,0
 2023-06-24 15:08:58.277,-36612.38094,29119.94208,1799.851871,21769.05683,17812.6416,-62783.41267,9640.285032,-56016.82437,-0.024,0.098,-0.99,192,0,0,0,0,0,0,0,0,0,0
 2023-06-24 15:08:58.277,-36817.45819,28516.89202,1212.090398,21148.75122,17225.61773,-62545.61246,9060.391374,-55868.47584,-0.024,0.098,-0.99,192,0,0,0,0,0,0,0,0,0,0
 2023-06-24 15:08:58.277,-36980.06713,28951.38758,1660.533447,21543.90771,17672.27264,-63248.10544,9498.664379,-56272.99771,-0.024,0.098,-0.99,192,0,0,0,0,0,0,0,0,0,0
 2023-06-24 15:08:58.277,-36890.95073,29794.85301,2506.99401,22371.92808,18509.34547,-63952.34185,10340.02874,-56695.04335,-0.024,0.098,-0.99,192,0,0,0,0,0,0,0,0,0,0
 2023-06-24 15:08:58.277,-36656.45858,29954.64563,2649.195808,22563.32607,18647.59101,-63715.48041,10482.14113,-56568.73364,-0.024,0.098,-0.99,192,0,0,0,0,0,0,0,0,0,0
 2023-06-24 15:08:58.277,-36601.7415,29134.78364,1818.448522,21773.41542,17820.48706,-62799.59533,9653.517265,-56026.36856,-0.024,0.098,-0.99,192,0,0,0,0,0,0,0,0,0,0
 2023-06-24 15:08:58.277,-36796.04522,28575.23007,1270.093175,21199.82495,17274.92568,-62534.74951,9102.591467,-55862.03854,-0.024,0.098,-0.99,192,0,0,0,0,0,0,0,0,0,0
 2023-06-24 15:08:58.277,-36968.91361,28938.53533,1649.849313,21524.41699,17655.50883,-63232.79449,9492.65176,-56265.75574,-0.024,0.098,-0.99,192,0,0,0,0,0,0,0,0,0,0
 2023-06-24 15:08:58.277,-36881.49594,29822.99385,2538.77819,22394.83862,18538.31333,-63943.3341,10378.67491,-56690.26008,-0.024,0.098,-0.99,192,0,0,0,0,0,0,0,0,0,0
 2023-06-24 15:08:58.277,-36651.38473,29980.93128,2677.135489,22586.54953,18680.7163,-63725.49399,10513.43358,-56574.36628,-0.022,0.09,-0.988,192,255,80,2,208,225,32,0,0,0,0
 2023-06-24 15:08:58.277,-36594.14191,29159.66113,1842.566054,21792.95084,17848.67261,-62814.36984,9688.006006,-56032.73881,-0.022,0.09,-0.988,192,0,0,0,0,0,0,0,0,0,0
 2023-06-24 15:08:58.277,-36789.94319,28551.73839,1244.65689,21176.06505,17257.1784,-62536.29178,9094.81306,-55860.49627,-0.022,0.09,-0.988,192,0,0,0,0,0,0,0,0,0,0
 2023-06-24 15:08:58.277,-36961.38107,28928.32058,1641.199188,21510.93888,17647.43986,-63221.26099,9478.503105,-56255.22807,-0.022,0.09,-0.988,192,0,0,0,0,0,0,0,0,0,0
 2023-06-24 15:08:58.277,-36883.95463,29752.83173,2467.856105,22335.40533,18475.68375,-63944.92107,10304.10949,-56689.41071,-0.022,0.09,-0.988,192,0,0,0,0,0,0,0,0,0,0
 2023-06-24 15:08:58.277,-36648.36724,29941.34634,2643.384355,22549.31152,18654.4977,-63739.03915,10490.54539,-56580.4236,-0.022,0.09,-0.988,192,0,0,0,0,0,0,0,0,0,0
 2023-06-24 15:08:58.277,-36579.07684,29180.35885,1868.896409,21812.64273,17877.68517,-62824.45047,9723.098245,-56035.35396,-0.022,0.09,-0.988,192,0,0,0,0,0,0,0,0,0,0
 2023-06-24 15:08:58.277,-36773.22409,28577.93463,1276.798699,21197.12039,17288.04616,-62527.17227,9137.124912,-55851.08618,-0.022,0.09,-0.988,192,0,0,0,0,0,0,0,0,0,0
 2023-06-24 15:08:58.277,-36947.16536,28942.15631,1651.59275,21520.7066,17662.52728,-63202.8208,9505.995751,-56243.33694,-0.022,0.09,-0.988,192,0,0,0,0,0,0,0,0,0,0
 2023-06-24 15:08:58.277,-36869.02367,29791.63436,2499.215603,22355.34309,18504.80807,-63933.00759,10340.94517,-56680.47001,-0.022,0.09,-0.988,192,0,0,0,0,0,0,0,0,0,0
 2023-06-24 15:08:58.277,-36628.65301,30007.59691,2700.180137,22610.91293,18712.36637,-63741.6096,10542.93788,-56578.61311,-0.016,0.094,-0.988,192,255,128,2,240,225,32,0,0,0,0
 2023-06-24 15:08:58.277,-36549.729,29253.00202,1931.637756,21889.93506,17944.85217,-62829.21139,9779.894028,-56037.0974,-0.016,0.094,-0.988,192,0,0,0,0,0,0,0,0,0,0
 2023-06-24 15:08:58.277,-36734.77909,28670.26969,1365.892752,21287.80142,17375.37442,-62507.48038,9222.307411,-55836.15522,-0.016,0.094,-0.988,192,0,0,0,0,0,0,0,0,0,0
 2023-06-24 15:08:58.278,-36913.36953,29015.38062,1725.599375,21601.95519,17741.85362,-63173.80824,9586.774956,-56220.9405,-0.016,0.094,-0.988,192,0,0,0,0,0,0,0,0,0,0
 2023-06-24 15:08:58.278,-36845.77785,29827.68772,2542.265063,22391.21764,18544.9518,-63918.70247,10396.48925,-56667.32719,-0.016,0.094,-0.988,192,0,0,0,0,0,0,0,0,0,0
 2023-06-24 15:08:58.278,-36608.53644,30062.09046,2763.748498,22654.7,18764.73651,-63746.1023,10613.79291,-56579.64129,-0.016,0.094,-0.988,192,0,0,0,0,0,0,0,0,0,0
 2023-06-24 15:08:58.278,-36532.60756,29271.37515,1953.274244,21920.60166,17971.33898,-62845.41641,9810.784139,-56048.25092,-0.016,0.094,-0.988,192,0,0,0,0,0,0,0,0,0,0
 2023-06-24 15:08:58.278,-36720.42927,28650.22017,1338.869493,21280.67121,17361.40458,-62508.79914,9203.129614,-55840.44675,-0.016,0.094,-0.988,192,0,0,0,0,0,0,0,0,0,0
 2023-06-24 15:08:58.278,-36894.03527,29045.44372,1748.9793,21628.46436,17762.59604,-63157.44676,9602.130604,-56212.22332,-0.016,0.094,-0.988,192,0,0,0,0,0,0,0,0,0,0
 2023-06-24 15:08:58.278,-36833.41734,29843.06572,2551.183409,22414.84343,18562.36381,-63913.53922,10407.9557,-56662.43215,-0.016,0.094,-0.988,192,0,0,0,0,0,0,0,0,0,0
 2023-06-24 15:08:58.278,-36599.34987,30069.48889,2763.882609,22665.83117,18774.59362,-63760.7874,10622.57715,-56582.47996,-0.02,0.092,-0.992,192,255,96,2,224,225,0,0,0,0,0
 2023-06-24 15:08:58.278,-36522.34811,29275.17495,1955.487067,21900.21687,17964.45465,-62865.42122,9814.963915,-56052.90008,-0.02,0.092,-0.992,192,0,0,0,0,0,0,0,0,0,0
 2023-06-24 15:08:58.278,-36711.77914,28634.19397,1320.317545,21239.00756,17331.74382,-62511.28018,9183.258913,-55835.37291,-0.02,0.092,-0.992,192,0,0,0,0,0,0,0,0,0,0
 2023-06-24 15:08:58.278,-36904.45118,28893.74243,1596.473348,21489.88354,17621.22126,-63164.3311,9452.284509,-56214.25733,-0.02,0.092,-0.992,192,0,0,0,0,0,0,0,0,0,0
 2023-06-24 15:08:58.278,-36850.33761,29706.16129,2415.754189,22289.60661,18433.59541,-63927.88904,10266.26799,-56671.77518,-0.02,0.092,-0.992,192,0,0,0,0,0,0,0,0,0,0
 2023-06-24 15:08:58.278,-36613.1856,29990.81075,2687.193774,22604.94502,18705.19146,-63786.71542,10546.33535,-56598.79674,-0.02,0.092,-0.992,192,0,0,0,0,0,0,0,0,0,0
 2023-06-24 15:08:58.278,-36525.03032,29245.46948,1925.28986,21903.56963,17947.40027,-62890.79045,9789.974664,-56068.38984,-0.02,0.092,-0.992,192,0,0,0,0,0,0,0,0,0,0
 2023-06-24 15:08:58.278,-36708.42638,28593.64791,1284.957085,21229.59748,17303.13358,-62515.72818,9156.526227,-55836.15522,-0.02,0.092,-0.992,192,0,0,0,0,0,0,0,0,0,0
 2023-06-24 15:08:58.278,-36894.41525,28903.13016,1615.047647,21488.67655,17624.59637,-63148.57312,9479.84421,-56201.1592,-0.02,0.092,-0.992,192,0,0,0,0,0,0,0,0,0,0
 2023-06-24 15:08:58.278,-36836.45717,29760.14075,2474.360463,22334.10893,18482.05399,-63915.93086,10324.7625,-56660.68872,-0.02,0.092,-0.992,192,0,0,0,0,0,0,0,0,0,0
 2023-06-24 15:08:58.278,-36601.38388,30026.35002,2726.175216,22632.95175,18731.41005,-63795.09733,10561.55688,-56601.41189,-0.018,0.092,-0.994,192,255,112,2,224,224,240,0,0,0,0
 2023-06-24 15:08:58.278,-36506.07604,29323.56648,2008.348943,21958.71138,18013.18145,-62900.46875,9855.308813,-56071.22851,-0.018,0.092,-0.994,192,0,0,0,0,0,0,0,0,0,0
 2023-06-24 15:08:58.278,-36688.8686,28654.24349,1350.850028,21282.3923,17356.93423,-62508.06153,9190.567933,-55829.82967,-0.018,0.092,-0.994,192,0,0,0,0,0,0,0,0,0,0
 2023-06-24 15:08:58.278,-36882.23355,28901.29732,1616.120531,21491.76109,17619.00844,-63133.6198,9456.933672,-56193.58196,-0.018,0.092,-0.994,192,0,0,0,0,0,0,0,0,0,0
 2023-06-24 15:08:58.278,-36836.8595,29704.59666,2424.627832,22274.29566,18427.0687,-63915.39442,10281.60128,-56661.8063,-0.018,0.092,-0.994,192,0,0,0,0,0,0,0,0,0,0
 2023-06-24 15:08:58.278,-36604.91545,29966.80498,2671.324035,22560.26388,18672.20028,-63815.43741,10526.37524,-56613.39243,-0.018,0.092,-0.994,192,0,0,0,0,0,0,0,0,0,0
 2023-06-24 15:08:58.278,-36501.60569,29302.08645,1993.395626,21928.38006,17991.94729,-62923.11107,9842.970651,-56086.56181,-0.018,0.092,-0.994,192,0,0,0,0,0,0,0,0,0,0
 2023-06-24 15:08:58.278,-36681.53723,28634.68571,1334.309737,21265.96376,17339.18695,-62510.14024,9175.435802,-55833.4283,-0.018,0.092,-0.994,192,0,0,0,0,0,0,0,0,0,0
 2023-06-24 15:08:58.278,-36871.30354,28910.81916,1622.468427,21507.11674,17628.01619,-63120.25346,9465.472038,-56185.62474,-0.018,0.092,-0.994,192,0,0,0,0,0,0,0,0,0,0
 2023-06-24 15:08:58.278,-36836.88186,29686.64821,2399.549174,22270.74173,18406.63921,-63913.78509,10251.04645,-56661.82866,-0.018,0.092,-0.994,192,0,0,0,0,0,0,0,0,0,0
 2023-06-24 15:08:58.278,-36605.94363,29987.86032,2685.539745,22601.36874,18695.02141,-63828.96022,10540.88152,-56623.00368,-0.018,0.092,-0.994,192,0,0,0,0,0,0,0,0,0,0
 2023-06-24 15:08:58.278,-36488.03818,29390.84523,2076.901743,22030.79576,18086.27165,-62935.85157,9931.125931,-56094.85431,-0.014,0.09,-0.994,192,255,144,2,208,224,240,0,0,0,0
 2023-06-24 15:08:58.278,-36665.28751,28694.78955,1393.608915,21318.75859,17395.93803,-62502.49594,9239.451199,-55829.98613,-0.014,0.09,-0.994,192,0,0,0,0,0,0,0,0,0,0
 2023-06-24 15:08:58.278,-36860.41824,28933.14855,1647.994119,21519.90193,17648.78096,-63100.78509,9503.15708,-56176.1029,-0.014,0.09,-0.994,192,0,0,0,0,0,0,0,0,0,0
 2023-06-24 15:08:58.278,-36822.53204,29752.36234,2471.63355,22338.51222,18480.10939,-63895.90369,10315.1736,-56651.92683,-0.014,0.09,-0.994,192,0,0,0,0,0,0,0,0,0,0
 2023-06-24 15:08:58.278,-36599.7522,30000.55611,2701.297724,22619.83128,18713.48396,-63834.54816,10554.6949,-56631.96673,-0.014,0.09,-0.994,192,0,0,0,0,0,0,0,0,0,0
 2023-06-24 15:08:58.278,-36495.50366,29290.46354,1973.726091,21935.2197,17983.54304,-62965.33352,9829.313735,-56121.89992,-0.014,0.09,-0.994,192,0,0,0,0,0,0,0,0,0,0
 2023-06-24 15:08:58.278,-36667.83561,28609.16002,1305.811263,21234.13488,17310.33085,-62512.82245,9163.835247,-55845.69941,-0.014,0.09,-0.994,192,0,0,0,0,0,0,0,0,0,0
 2023-06-24 15:08:58.278,-36857.51252,28877.44801,1594.104063,21469.11877,17597.84133,-63091.08443,9454.184407,-56179.56742,-0.014,0.09,-0.994,192,0,0,0,0,0,0,0,0,0,0
 2023-06-24 15:08:58.278,-36820.7439,29715.929,2438.418858,22299.91076,18440.81502,-63889.42169,10280.93073,-56656.95598,-0.014,0.09,-0.994,192,0,0,0,0,0,0,0,0,0,0
 2023-06-24 15:08:58.278,-36591.30324,30040.74455,2747.185856,22655.10233,18749.49262,-63840.65018,10589.16129,-56639.3875,-0.014,0.09,-0.994,192,0,0,0,0,0,0,0,0,0,0
 2023-06-24 15:08:58.278,-36479.76804,29343.77245,2035.930995,21999.45861,18037.20957,-62974.11775,9875.358328,-56130.19241,-0.008,0.094,-0.992,192,255,192,2,240,225,0,0,0,0,0
 2023-06-24 15:08:58.278,-36658.64905,28573.12901,1275.994036,21220.34385,17279.48544,-62510.02848,9119.198813,-55847.73342,-0.008,0.094,-0.992,192,0,0,0,0,0,0,0,0,0,0
 2023-06-24 15:08:58.278,-36852.68454,28814.86312,1535.00605,21422.00129,17539.54798,-63078.16512,9379.574285,-56174.53828,-0.008,0.094,-0.992,192,0,0,0,0,0,0,0,0,0,0
 2023-06-24 15:08:58.279,-36824.96838,29624.3539,2345.904988,22213.58832,18349.68696,-63888.70643,10192.48488,-56659.57113,-0.008,0.094,-0.992,192,0,0,0,0,0,0,0,0,0,0
 2023-06-24 15:08:58.279,-36597.31586,29987.01095,2692.960524,22596.74193,18696.139,-63857.72691,10559.50052,-56651.34569,-0.008,0.094,-0.992,192,0,0,0,0,0,0,0,0,0,0
 2023-06-24 15:08:58.279,-36478.00225,29337.08928,2022.40819,21978.04564,18028.11241,-62998.50351,9895.027863,-56146.48684,-0.008,0.094,-0.992,192,0,0,0,0,0,0,0,0,0,0
 2023-06-24 15:08:58.279,-36649.10485,28589.0658,1284.644161,21233.062,17292.62826,-62514.1412,9148.099619,-55851.66733,-0.008,0.094,-0.992,192,0,0,0,0,0,0,0,0,0,0
 2023-06-24 15:08:58.279,-36843.52032,28829.57057,1541.733926,21447.19171,17558.07758,-63067.88332,9408.139814,-56168.68212,-0.008,0.094,-0.992,192,0,0,0,0,0,0,0,0,0,0
 2023-06-24 15:08:58.279,-36817.70406,29629.87478,2347.022575,22218.88569,18354.93962,-63881.41976,10225.11843,-56655.25724,-0.008,0.094,-0.992,192,0,0,0,0,0,0,0,0,0,0
 2023-06-24 15:08:58.279,-36586.58702,30023.77957,2724.700001,22637.3774,18734.11462,-63864.36538,10592.42464,-56656.33013,-0.008,0.094,-0.992,192,0,0,0,0,0,0,0,0,0,0
 2023-06-24 15:08:58.279,-36455.78461,29449.13858,2134.457485,22104.84709,18143.98386,-63006.796,9976.119992,-56149.72784,-0.014,0.092,-0.988,192,255,144,2,224,225,32,0,0,0,0
 2023-06-24 15:08:58.279,-36618.3265,28729.3677,1426.287165,21376.26962,17432.25961,-62498.58439,9283.282969,-55838.16687,-0.014,0.092,-0.988,192,0,0,0,0,0,0,0,0,0,0
 2023-06-24 15:08:58.279,-36822.39793,28906.03589,1623.92129,21511.7212,17628.77615,-63045.1516,9480.693576,-56153.88526,-0.014,0.092,-0.988,192,0,0,0,0,0,0,0,0,0,0
 2023-06-24 15:08:58.279,-36812.80903,29641.11771,2362.378223,22224.58538,18368.97652,-63875.63066,10218.79288,-56652.50798,-0.014,0.092,-0.988,192,0,0,0,0,0,0,0,0,0,0
 2023-06-24 15:08:58.279,-36586.83289,30026.86411,2730.980841,22630.67187,18735.61218,-63879.54222,10583.21572,-56665.94138,-0.014,0.092,-0.988,192,0,0,0,0,0,0,0,0,0,0
 2023-06-24 15:08:58.279,-36450.33079,29446.88105,2140.492456,22082.87532,18139.91584,-63029.05834,9991.788565,-56162.98242,-0.014,0.092,-0.988,192,0,0,0,0,0,0,0,0,0,0
 2023-06-24 15:08:58.279,-36615.55488,28656.03163,1355.856819,21292.49529,17362.52217,-62509.87202,9217.613544,-55845.72176,-0.014,0.092,-0.988,192,0,0,0,0,0,0,0,0,0,0
 2023-06-24 15:08:58.279,-36821.4815,28824.20615,1539.09642,21426.76221,17550.12036,-63042.06706,9390.28077,-56151.85125,-0.014,0.092,-0.988,192,0,0,0,0,0,0,0,0,0,0
 2023-06-24 15:08:58.279,-36801.72256,29680.41208,2397.425759,22262.85157,18403.77818,-63863.80659,10240.49643,-56639.58867,-0.014,0.092,-0.988,192,0,0,0,0,0,0,0,0,0,0
 2023-06-24 15:08:58.279,-36576.86401,30078.72016,2778.165374,22694.41905,18791.5586,-63883.67729,10634.93766,-56660.48755,-0.014,0.092,-0.988,192,0,0,0,0,0,0,0,0,0,0
 2023-06-24 15:08:58.279,-36445.27929,29462.9296,2146.348613,22111.21733,18164.50276,-63050.27015,10009.37939,-56171.16316,-0.012,0.088,-0.99,192,255,160,2,192,225,16,0,0,0,0
 2023-06-24 15:08:58.279,-36603.48494,28703.48438,1396.380531,21336.77409,17403.3141,-62510.63198,9243.273347,-55840.44675,-0.012,0.088,-0.99,192,0,0,0,0,0,0,0,0,0,0
 2023-06-24 15:08:58.279,-36813.25606,28845.23914,1555.524952,21445.89531,17564.98427,-63030.22063,9404.1165,-56140.07189,-0.012,0.088,-0.99,192,0,0,0,0,0,0,0,0,0,0
 2023-06-24 15:08:58.279,-36800.9626,29672.14193,2384.931133,22255.25197,18398.23495,-63859.4033,10229.52172,-56634.09014,-0.012,0.088,-0.99,192,0,0,0,0,0,0,0,0,0,0
 2023-06-24 15:08:58.279,-36580.10502,30074.24981,2772.420975,22675.80005,18781.18739,-63897.06598,10620.00669,-56665.94138,-0.012,0.088,-0.99,192,0,0,0,0,0,0,0,0,0,0
 2023-06-24 15:08:58.279,-36443.26764,29473.97136,2153.009433,22116.44764,18163.49693,-63069.00091,10004.08202,-56179.81329,-0.012,0.088,-0.99,192,0,0,0,0,0,0,0,0,0,0
 2023-06-24 15:08:58.279,-36595.48302,28702.61266,1386.054025,21347.97232,17401.92829,-62511.5484,9240.322917,-55838.25628,-0.012,0.088,-0.99,192,0,0,0,0,0,0,0,0,0,0
 2023-06-24 15:08:58.279,-36801.76727,28862.13706,1562.521048,21469.23053,17577.41184,-63013.85915,9430.111579,-56124.78329,-0.012,0.088,-0.99,192,0,0,0,0,0,0,0,0,0,0
 2023-06-24 15:08:58.279,-36803.73422,29619.77179,2332.806865,22214.39299,18341.64033,-63857.12342,10193.22249,-56628.4575,-0.012,0.088,-0.99,192,0,0,0,0,0,0,0,0,0,0
 2023-06-24 15:08:58.279,-36593.24784,29970.62713,2670.385262,22585.07432,18681.09628,-63922.03288,10525.45882,-56680.00062,-0.012,0.088,-0.99,192,0,0,0,0,0,0,0,0,0,0
 2023-06-24 15:08:58.279,-36439.33373,29502.82747,2187.431119,22141.05691,18193.8506,-63091.91145,10036.84968,-56191.68206,-0.018,0.09,-0.992,192,255,112,2,208,225,0,0,0,0,0
 2023-06-24 15:08:58.279,-36587.74931,28717.70009,1407.109369,21347.77115,17411.38308,-62518.16452,9258.293719,-55844.35831,-0.018,0.09,-0.992,192,0,0,0,0,0,0,0,0,0,0
 2023-06-24 15:08:58.279,-36804.69534,28766.31513,1475.818631,21364.44555,17480.38292,-63015.51318,9327.226499,-56132.13702,-0.018,0.09,-0.992,192,0,0,0,0,0,0,0,0,0,0
 2023-06-24 15:08:58.279,-36802.2143,29575.29182,2292.685484,22153.86446,18293.47233,-63855.51409,10132.98453,-56630.46916,-0.018,0.09,-0.992,192,0,0,0,0,0,0,0,0,0,0
 2023-06-24 15:08:58.279,-36580.32853,30039.20228,2741.150885,22635.99159,18742.00478,-63925.408,10582.45576,-56681.00645,-0.018,0.09,-0.992,192,0,0,0,0,0,0,0,0,0,0
 2023-06-24 15:08:58.279,-36430.75066,29515.05387,2188.414596,22151.56223,18202.36661,-63111.46922,10048.18202,-56205.18252,-0.018,0.09,-0.992,192,0,0,0,0,0,0,0,0,0,0
 2023-06-24 15:08:58.279,-36575.96994,28734.68742,1422.129741,21368.13359,17430.96321,-62519.46092,9279.527876,-55846.70524,-0.018,0.09,-0.992,192,0,0,0,0,0,0,0,0,0,0
 2023-06-24 15:08:58.279,-36782.9918,28853.33048,1562.699862,21442.72136,17565.07368,-62990.70275,9418.645134,-56116.26728,-0.018,0.09,-0.992,192,0,0,0,0,0,0,0,0,0,0
 2023-06-24 15:08:58.279,-36792.40189,29590.51336,2302.453196,22156.07728,18306.86102,-63841.18662,10158.08554,-56623.58482,-0.018,0.09,-0.992,192,0,0,0,0,0,0,0,0,0,0
 2023-06-24 15:08:58.279,-36576.43933,30019.21982,2722.12955,22616.99261,18724.86099,-63934.46045,10574.67736,-56688.60605,-0.018,0.09,-0.992,192,0,0,0,0,0,0,0,0,0,0
 2023-06-24 15:08:58.279,-36427.4426,29478.24055,2162.754793,22109.27273,18163.63104,-63135.00561,10014.0509,-56219.59939,-0.02,0.1,-0.994,192,255,96,3,32,224,240,0,0,0,0
 2023-06-24 15:08:58.279,-36566.06812,28694.74485,1382.969485,21320.2338,17383.15283,-62525.07121,9225.526062,-55847.12992,-0.02,0.1,-0.994,192,0,0,0,0,0,0,0,0,0,0
 2023-06-24 15:08:58.279,-36782.58947,28755.31808,1459.926541,21351.23567,17461.04866,-62988.69109,9298.370397,-56112.691,-0.02,0.1,-0.994,192,0,0,0,0,0,0,0,0,0,0
 2023-06-24 15:08:58.279,-36795.53113,29522.16172,2241.008251,22086.78688,18231.37918,-63842.1254,10073.70771,-56619.40505,-0.02,0.1,-0.994,192,0,0,0,0,0,0,0,0,0,0
 2023-06-24 15:08:58.279,-36582.67547,29963.02753,2671.078166,22549.19977,18665.89709,-63953.63825,10511.86896,-56697.07736,-0.02,0.1,-0.994,192,0,0,0,0,0,0,0,0,0,0
 2023-06-24 15:08:58.279,-36430.86242,29440.60021,2130.322412,22069.39722,18130.19283,-63166.38746,9968.296882,-56238.12899,-0.02,0.1,-0.994,192,0,0,0,0,0,0,0,0,0,0
 2023-06-24 15:08:58.279,-36568.77268,28617.85485,1308.202899,21252.3292,17314.01888,-62547.19943,9163.589378,-55861.41269,-0.02,0.1,-0.994,192,0,0,0,0,0,0,0,0,0,0
 2023-06-24 15:08:58.280,-36779.1026,28710.90516,1415.088941,21316.9928,17429.75622,-62987.23823,9268.866094,-56113.20509,-0.02,0.1,-0.994,192,0,0,0,0,0,0,0,0,0,0
 2023-06-24 15:08:58.280,-36791.17254,29501.9781,2215.594317,22079.25434,18219.37629,-63834.59286,10048.29378,-56616.78989,-0.02,0.1,-0.994,192,0,0,0,0,0,0,0,0,0,0
 2023-06-24 15:08:58.280,-36578.94273,29974.00224,2678.163669,22566.79059,18676.35771,-63963.51772,10508.0021,-56703.08998,-0.02,0.1,-0.994,192,0,0,0,0,0,0,0,0,0,0
 2023-06-24 15:08:58.280,-36413.15984,29538.07617,2222.948041,22157.35133,18222.1032,-63177.65274,10048.24907,-56239.33598,-0.024,0.098,-0.994,192,255,64,3,16,224,240,0,0,0,0
 2023-06-24 15:08:58.280,-36537.30143,28749.59603,1436.233692,21368.02183,17438.85338,-62534.52599,9275.795135,-55845.87823,-0.024,0.098,-0.994,192,0,0,0,0,0,0,0,0,0,0
 2023-06-24 15:08:58.280,-36752.43697,28791.68436,1494.325876,21384.2939,17504.32164,-62963.72419,9331.875662,-56091.41214,-0.024,0.098,-0.994,192,0,0,0,0,0,0,0,0,0,0
 2023-06-24 15:08:58.280,-36779.28141,29494.42321,2218.991783,22064.54689,18211.03909,-63825.09337,10030.41238,-56603.08827,-0.024,0.098,-0.994,192,0,0,0,0,0,0,0,0,0,0
 2023-06-24 15:08:58.280,-36566.4928,29988.68734,2697.967314,22583.06266,18696.87661,-63968.65862,10525.59293,-56696.58562,-0.024,0.098,-0.994,192,0,0,0,0,0,0,0,0,0,0
 2023-06-24 15:08:58.280,-36404.17444,29520.46299,2203.278506,22151.65164,18215.30827,-63194.95299,10049.63488,-56244.83451,-0.024,0.098,-0.994,192,0,0,0,0,0,0,0,0,0,0
 2023-06-24 15:08:58.280,-36535.20036,28667.00633,1348.994833,21292.24942,17367.99835,-62542.55027,9213.366713,-55848.60514,-0.024,0.098,-0.994,192,0,0,0,0,0,0,0,0,0,0
 2023-06-24 15:08:58.757,-36745.93261,28744.0975,1444.727355,21331.83436,17461.65216,-62948.23443,9308.227516,-56080.05745,-0.024,0.098,-0.994,192,0,0,0,0,0,0,0,0,0,0
 2023-06-24 15:08:58.757,-36769.89368,29523.27931,2243.064611,22097.80629,18248.54532,-63801.46757,10073.21597,-56585.74332,-0.024,0.098,-0.994,192,0,0,0,0,0,0,0,0,0,0
 2023-06-24 15:08:58.757,-36560.94957,30025.65712,2727.024582,22624.90512,18736.77447,-63960.56729,10556.88537,-56689.67893,-0.024,0.098,-0.994,192,0,0,0,0,0,0,0,0,0,0
 2023-06-24 15:08:58.757,-36404.19679,29520.5971,2202.071512,22153.99857,18213.45308,-63205.50301,10034.23453,-56251.22711,-0.02,0.096,-0.992,192,255,96,3,0,225,0,0,0,0,0
 2023-06-24 15:08:58.757,-36528.31602,28693.56021,1377.91799,21323.51951,17389.56778,-62538.75047,9220.854547,-55847.4205,-0.02,0.096,-0.992,192,0,0,0,0,0,0,0,0,0,0
 2023-06-24 15:08:58.757,-36743.67508,28732.02756,1437.977128,21337.71286,17444.82129,-62934.57752,9269.827219,-56074.73774,-0.02,0.096,-0.992,192,0,0,0,0,0,0,0,0,0,0
 2023-06-24 15:08:58.757,-36776.01806,29487.78474,2202.116215,22070.26894,18205.62997,-63794.71735,10024.48917,-56584.84925,-0.02,0.096,-0.992,192,0,0,0,0,0,0,0,0,0,0
 2023-06-24 15:08:58.757,-36571.61135,29971.54355,2671.681663,22566.52237,18674.79309,-63976.0794,10505.92339,-56701.07832,-0.02,0.096,-0.992,192,0,0,0,0,0,0,0,0,0,0
 2023-06-24 15:08:58.757,-36411.86344,29471.73619,2155.557532,22096.06285,18155.94204,-63234.1803,10004.17143,-56268.54971,-0.02,0.096,-0.992,192,0,0,0,0,0,0,0,0,0,0
 2023-06-24 15:08:58.757,-36518.03422,28735.7603,1417.033543,21361.65158,17425.26352,-62543.39964,9265.446277,-55847.08522,-0.02,0.096,-0.992,192,0,0,0,0,0,0,0,0,0,0
 2023-06-24 15:08:58.757,-36731.53808,28764.14702,1458.026643,21354.58843,17470.07876,-62922.217,9308.003999,-56062.66779,-0.02,0.096,-0.992,192,0,0,0,0,0,0,0,0,0,0
 2023-06-24 15:08:58.757,-36782.67888,29415.47685,2125.986174,21983.85709,18131.48923,-63794.82911,9967.112239,-56581.69765,-0.02,0.096,-0.992,192,0,0,0,0,0,0,0,0,0,0
 2023-06-24 15:08:58.757,-36585.35768,29897.06753,2603.307677,22497.36607,18610.01773,-63999.95106,10422.1267,-56713.55059,-0.02,0.096,-0.992,192,0,0,0,0,0,0,0,0,0,0
 2023-06-24 15:08:58.757,-36406.29785,29535.2375,2219.841149,22167.94606,18231.6027,-63254.58744,10055.06635,-56278.6527,-0.02,0.096,-0.994,192,255,96,3,0,224,240,0,0,0,0
 2023-06-24 15:08:58.757,-36518.21304,28701.45037,1388.870345,21331.47673,17397.79322,-62557.90592,9228.498844,-55857.16586,-0.02,0.096,-0.994,192,0,0,0,0,0,0,0,0,0,0
 2023-06-24 15:08:58.757,-36734.48852,28702.61266,1404.673029,21301.52539,17417.37335,-62920.63003,9246.983736,-56064.81356,-0.02,0.096,-0.994,192,0,0,0,0,0,0,0,0,0,0
 2023-06-24 15:08:58.757,-36765.53509,29537.51737,2249.9713,22105.76351,18262.3587,-63771.51624,10089.84567,-56565.20207,-0.02,0.096,-0.994,192,0,0,0,0,0,0,0,0,0,0
 2023-06-24 15:08:58.757,-36563.56473,30042.26447,2743.408411,22632.57177,18753.1136,-63986.62942,10573.40331,-56702.73235,-0.02,0.096,-0.994,192,0,0,0,0,0,0,0,0,0,0
 2023-06-24 15:08:58.757,-36397.78184,29552.85067,2233.363954,22190.2084,18249.26057,-63267.4844,10069.86321,-56285.82761,-0.02,0.096,-0.994,192,0,0,0,0,0,0,0,0,0,0
 2023-06-24 15:08:58.757,-36515.95551,28664.63705,1346.849066,21302.46416,17364.57853,-62566.15371,9204.940105,-55862.195,-0.02,0.096,-0.994,192,0,0,0,0,0,0,0,0,0,0
 2023-06-24 15:08:58.757,-36735.18142,28657.68566,1363.94815,21263.8627,17374.74857,-62914.17037,9211.556221,-56060.27616,-0.02,0.096,-0.994,192,0,0,0,0,0,0,0,0,0,0
 2023-06-24 15:08:58.757,-36784.73524,29395.65085,2107.076598,21971.45188,18117.85467,-63779.78638,9948.604995,-56571.08057,-0.02,0.096,-0.994,192,0,0,0,0,0,0,0,0,0,0
 2023-06-24 15:08:58.757,-36578.87567,29957.57371,2654.113192,22550.67498,18664.62304,-64008.60119,10496.78153,-56715.09286,-0.02,0.096,-0.994,192,0,0,0,0,0,0,0,0,0,0
 2023-06-24 15:08:58.758,-36395.63607,29572.11787,2252.184123,22203.79826,18261.86696,-63289.45616,10107.45884,-56296.66821,-0.022,0.09,-0.99,192,255,80,2,208,225,16,0,0,0,0
 2023-06-24 15:08:58.758,-36498.20822,28742.17525,1428.254119,21374.45913,17440.35094,-62564.81261,9287.194525,-55857.21056,-0.022,0.09,-0.99,192,0,0,0,0,0,0,0,0,0,0
 2023-06-24 15:08:58.758,-36718.9764,28691.41444,1396.11231,21290.30481,17406.55511,-62898.99354,9247.140199,-56047.31215,-0.022,0.09,-0.99,192,0,0,0,0,0,0,0,0,0,0
 2023-06-24 15:08:58.758,-36765.84801,29460.22504,2172.008416,22038.84238,18182.60767,-63756.54057,10023.55039,-56551.79102,-0.022,0.09,-0.99,192,0,0,0,0,0,0,0,0,0,0
 2023-06-24 15:08:58.758,-36574.83,29955.71851,2662.562151,22548.46216,18663.30429,-64013.02684,10517.56865,-56716.00928,-0.022,0.09,-0.99,192,0,0,0,0,0,0,0,0,0,0
 2023-06-24 15:08:58.758,-36394.7867,29566.12761,2255.782754,22206.99456,18264.63857,-63312.14318,10118.59001,-56310.77216,-0.022,0.09,-0.99,192,0,0,0,0,0,0,0,0,0,0
 2023-06-24 15:08:58.758,-36493.51436,28725.85848,1412.719657,21377.83425,17431.74552,-62576.50257,9288.826202,-55865.01132,-0.022,0.09,-0.99,192,0,0,0,0,0,0,0,0,0,0
 2023-06-24 15:08:58.758,-36716.02597,28641.32418,1349.933606,21250.96574,17360.06348,-62893.83029,9210.215117,-56046.59689,-0.022,0.09,-0.99,192,0,0,0,0,0,0,0,0,0,0
 2023-06-24 15:08:58.758,-36772.35237,29368.94052,2082.7579,21949.50246,18093.71478,-63754.59597,9941.340678,-56553.73562,-0.022,0.09,-0.99,192,0,0,0,0,0,0,0,0,0,0
 2023-06-24 15:08:58.758,-36575.09823,29946.21902,2651.185113,22533.33003,18653.44717,-64020.20175,10511.33251,-56719.76438,-0.022,0.09,-0.99,192,0,0,0,0,0,0,0,0,0,0
 2023-06-24 15:08:58.758,-36384.81782,29622.90104,2310.790397,22252.86034,18317.96984,-63326.4483,10167.27211,-56316.27069,-0.018,0.096,-0.986,192,255,112,3,0,225,48,0,0,0,0
 2023-06-24 15:08:58.758,-36479.9245,28763.69998,1447.09664,21418.26855,17461.98743,-62579.38595,9311.490871,-55863.31259,-0.018,0.096,-0.986,192,0,0,0,0,0,0,0,0,0,0
 2023-06-24 15:08:58.758,-36704.96186,28653.61764,1355.208618,21276.08911,17368.49008,-62882.81088,9219.73696,-56036.33744,-0.018,0.096,-0.986,192,0,0,0,0,0,0,0,0,0,0
 2023-06-24 15:08:58.758,-36761.40002,29423.50112,2143.040555,22012.24381,18148.45421,-63739.48619,10007.5689,-56539.83284,-0.018,0.096,-0.986,192,0,0,0,0,0,0,0,0,0,0
 2023-06-24 15:08:58.758,-36563.78824,30029.07694,2734.847693,22629.33077,18742.29535,-64019.44179,10602.41587,-56713.86352,-0.018,0.096,-0.986,192,0,0,0,0,0,0,0,0,0,0
 2023-06-24 15:08:58.758,-36374.67013,29685.37416,2376.124546,22317.6804,18374.83267,-63341.89336,10226.23601,-56320.3387,-0.018,0.096,-0.986,192,0,0,0,0,0,0,0,0,0,0
 2023-06-24 15:08:58.758,-36473.06251,28771.12076,1458.786602,21416.74863,17462.09919,-62585.91266,9307.847537,-55863.04436,-0.018,0.096,-0.986,192,0,0,0,0,0,0,0,0,0,0
 2023-06-24 15:08:58.758,-36687.34869,28722.17044,1427.62827,21337.77992,17435.63472,-62860.16856,9284.82524,-56016.95848,-0.018,0.096,-0.986,192,0,0,0,0,0,0,0,0,0,0
 2023-06-24 15:08:58.758,-36751.02881,29434.09585,2147.197979,22018.5023,18163.27341,-63718.92258,10017.69424,-56522.35377,-0.018,0.096,-0.986,192,0,0,0,0,0,0,0,0,0,0
 2023-06-24 15:08:58.758,-36563.58708,30004.37826,2701.342428,22604.63209,18727.38674,-64024.38152,10567.63656,-56712.74593,-0.018,0.096,-0.986,192,0,0,0,0,0,0,0,0,0,0
 2023-06-24 15:08:58.758,-36377.35234,29649.61137,2330.459932,22287.21497,18355.40901,-63367.37434,10187.0087,-56334.75558,-0.01,0.094,-0.988,192,255,176,2,240,225,32,0,0,0,0
 2023-06-24 15:08:58.758,-36466.73697,28767.03039,1443.721526,21410.08781,17470.5258,-62597.87084,9314.955391,-55869.12404,-0.01,0.094,-0.988,192,0,0,0,0,0,0,0,0,0,0
 2023-06-24 15:08:58.758,-36692.08726,28610.45642,1313.813187,21222.2661,17331.45324,-62866.22588,9181.716643,-56021.13825,-0.01,0.094,-0.988,192,0,0,0,0,0,0,0,0,0,0
 2023-06-24 15:08:58.758,-36769.04431,29262.74738,1975.424823,21845.20922,17994.83067,-63731.75248,9847.396296,-56531.27212,-0.01,0.094,-0.988,192,0,0,0,0,0,0,0,0,0,0
 2023-06-24 15:08:58.758,-36565.28581,29990.07314,2689.652466,22581.31922,18707.78426,-64036.27265,10558.15942,-56718.26681,-0.01,0.094,-0.988,192,0,0,0,0,0,0,0,0,0,0
 2023-06-24 15:08:58.758,-36360.90146,29753.27876,2442.732745,22373.51505,18447.40879,-63376.78443,10305.94233,-56336.36491,-0.01,0.094,-0.988,192,0,0,0,0,0,0,0,0,0,0
 2023-06-24 15:08:58.758,-36442.61944,28863.94755,1551.233417,21501.41704,17558.81519,-62603.25761,9421.997895,-55870.95688,-0.01,0.094,-0.988,192,0,0,0,0,0,0,0,0,0,0
 2023-06-24 15:08:58.758,-36603.37318,28900.69382,1610.711409,21519.4996,17625.24457,-62925.16743,9481.073556,-56078.00109,-0.01,0.094,-0.988,192,0,0,0,0,0,0,0,0,0,0
 2023-06-24 15:08:58.758,-36597.897,29691.14091,2409.093369,22281.24705,18420.0279,-63796.84076,10272.10179,-56618.68979,-0.01,0.094,-0.988,192,0,0,0,0,0,0,0,0,0,0
 2023-06-24 15:08:58.758,-36444.94402,30129.45862,2830.669621,22726.96319,18840.08424,-64061.46307,10687.71013,-56786.01495,-0.01,0.094,-0.988,192,0,0,0,0,0,0,0,0,0,0
 2023-06-24 15:08:58.758,-36265.68303,29848.09486,2535.894815,22474.6567,18537.17339,-63388.74261,10388.48733,-56392.55719,-0.014,0.1,-0.986,192,255,144,3,32,225,48,0,0,0,0
 2023-06-24 15:08:58.758,-36377.55351,28866.78623,1557.469554,21506.82616,17556.46826,-62589.17601,9417.639305,-55903.70219,-0.014,0.1,-0.986,192,0,0,0,0,0,0,0,0,0,0
 2023-06-24 15:08:58.758,-36610.86102,28725.14322,1427.807084,21352.2415,17444.01663,-62819.15311,9295.688188,-56025.09451,-0.014,0.1,-0.986,192,0,0,0,0,0,0,0,0,0,0
 2023-06-24 15:08:58.758,-36685.31468,29413.91223,2130.411819,22007.68405,18141.18989,-63696.81671,9995.029568,-56542.96208,-0.014,0.1,-0.986,192,0,0,0,0,0,0,0,0,0,0
 2023-06-24 15:08:58.758,-36502.54446,29991.63777,2700.180137,22591.15399,18708.43246,-64056.38922,10581.0476,-56768.82646,-0.014,0.1,-0.986,192,0,0,0,0,0,0,0,0,0,0
 2023-06-24 15:08:58.758,-36305.98322,29712.86681,2405.695904,22347.1847,18417.30099,-63413.91068,10290.49728,-56395.66408,-0.014,0.1,-0.986,192,0,0,0,0,0,0,0,0,0,0
 2023-06-24 15:08:58.758,-36396.15016,28798.12167,1487.486242,21443.2578,17499.44895,-62599.79309,9367.973729,-55898.0472,-0.014,0.1,-0.986,192,0,0,0,0,0,0,0,0,0,0
 2023-06-24 15:08:58.758,-36634.37505,28576.01238,1280.844364,21196.89687,17296.49512,-62819.28722,9158.649642,-56018.29958,-0.014,0.1,-0.986,192,0,0,0,0,0,0,0,0,0,0
 2023-06-24 15:08:58.758,-36707.66642,29283.33334,2011.567594,21861.74951,18011.77329,-63695.45325,9872.117325,-56536.10009,-0.014,0.1,-0.986,192,0,0,0,0,0,0,0,0,0,0
 2023-06-24 15:08:58.758,-36511.3734,29968.19079,2683.393977,22564.62247,18695.24493,-64063.2065,10545.50833,-56764.9149,-0.014,0.1,-0.986,192,0,0,0,0,0,0,0,0,0,0
 2023-06-24 15:08:58.758,-36310.163,29701.2439,2395.279991,22343.60842,18415.75872,-63435.81539,10268.23494,-56401.14026,-0.018,0.1,-0.986,192,255,112,3,32,225,48,0,0,0,0
 2023-06-24 15:08:58.758,-36391.18807,28798.30048,1485.809861,21443.57073,17504.74632,-62606.69978,9367.884322,-55896.61668,-0.018,0.1,-0.986,192,0,0,0,0,0,0,0,0,0,0
 2023-06-24 15:08:58.758,-36619.35468,28628.85191,1336.075525,21243.92494,17352.57564,-62798.94713,9221.122768,-55998.02655,-0.018,0.1,-0.986,192,0,0,0,0,0,0,0,0,0,0
 2023-06-24 15:08:58.758,-36693.45071,29342.52075,2058.819182,21928.8718,18075.98985,-63668.00531,9946.772152,-56510.28383,-0.018,0.1,-0.986,192,0,0,0,0,0,0,0,0,0,0
 2023-06-24 15:08:58.758,-36503.05855,30036.00598,2742.6261,22628.07907,18761.71902,-64053.97523,10623.47122,-56750.8333,-0.018,0.1,-0.986,192,0,0,0,0,0,0,0,0,0,0
 2023-06-24 15:08:58.758,-36297.75778,29782.64895,2467.632588,22409.47901,18486.21142,-63442.20799,10345.9296,-56398.34629,-0.018,0.1,-0.986,192,0,0,0,0,0,0,0,0,0,0
 2023-06-24 15:08:58.758,-36381.86739,28807.28588,1488.760291,21442.92253,17509.06021,-62612.24301,9373.941645,-55896.39317,-0.018,0.1,-0.986,192,0,0,0,0,0,0,0,0,0,0
 2023-06-24 15:08:58.759,-36615.06314,28580.79566,1282.341931,21211.26905,17309.32502,-62791.90633,9164.528151,-55991.87982,-0.018,0.1,-0.986,192,0,0,0,0,0,0,0,0,0,0
 2023-06-24 15:08:58.759,-36701.94438,29217.28393,1930.40841,21821.40461,17955.33513,-63668.11707,9807.297266,-56510.44029,-0.018,0.1,-0.986,192,0,0,0,0,0,0,0,0,0,0
 2023-06-24 15:08:58.759,-36515.01674,29908.51163,2619.356229,22506.21736,18630.98367,-64070.58258,10485.65036,-56762.29975,-0.018,0.1,-0.986,192,0,0,0,0,0,0,0,0,0,0
 2023-06-24 15:08:58.759,-36295.4779,29760.45367,2454.757983,22384.44506,18460.66337,-63460.60347,10311.70908,-56410.32683,-0.02,0.1,-0.986,192,255,96,3,32,225,48,0,0,0,0
 2023-06-24 15:08:58.759,-36363.13663,28866.80858,1551.881618,21502.02054,17558.36815,-62610.27606,9415.538241,-55894.76149,-0.02,0.1,-0.986,192,0,0,0,0,0,0,0,0,0,0
 2023-06-24 15:08:58.759,-36601.22741,28588.17173,1289.76271,21200.92019,17300.809,-62774.24845,9159.499009,-55982.6709,-0.02,0.1,-0.986,192,0,0,0,0,0,0,0,0,0,0
 2023-06-24 15:08:58.759,-36680.93374,29320.99602,2038.233225,21892.79609,18046.88788,-63634.32123,9915.010323,-56488.40147,-0.02,0.1,-0.986,192,0,0,0,0,0,0,0,0,0,0
 2023-06-24 15:08:58.759,-36493.67082,30041.99625,2752.550274,22620.03244,18760.78025,-64048.94609,10633.37304,-56746.11708,-0.02,0.1,-0.986,192,0,0,0,0,0,0,0,0,0,0
 2023-06-24 15:08:58.759,-36282.37978,29831.06283,2518.818083,22451.54499,18530.1773,-63464.22445,10398.85854,-56411.06444,-0.02,0.1,-0.986,192,0,0,0,0,0,0,0,0,0,0
 2023-06-24 15:08:58.759,-36353.7042,28867.52383,1550.898141,21501.28293,17558.01053,-62614.0088,9428.502253,-55896.23671,-0.02,0.1,-0.986,192,0,0,0,0,0,0,0,0,0,0
 2023-06-24 15:08:58.759,-36584.75418,28626.61673,1341.797571,21226.51294,17333.93429,-62752.07552,9190.836154,-55966.93527,-0.02,0.1,-0.986,192,0,0,0,0,0,0,0,0,0,0
 2023-06-24 15:08:58.759,-36677.46922,29249.98453,1976.743576,21818.96827,17970.08729,-63617.53507,9827.257374,-56478.20908,-0.02,0.1,-0.986,192,0,0,0,0,0,0,0,0,0,0
 2023-06-24 15:08:58.759,-36501.24806,29928.89642,2645.530122,22492.85102,18641.28782,-64055.38339,10504.7164,-56750.65449,-0.02,0.1,-0.986,192,0,0,0,0,0,0,0,0,0,0
 2023-06-24 15:08:58.759,-36290.15819,29730.36822,2422.884395,22344.16721,18430.265,-63487.24675,10282.04832,-56424.22961,-0.022,0.098,-0.986,192,255,80,3,16,225,48,0,0,0,0
 2023-06-24 15:08:58.759,-36352.4525,28808.06819,1490.347265,21444.30833,17503.58403,-62624.67058,9357.848389,-55899.23184,-0.022,0.098,-0.986,192,0,0,0,0,0,0,0,0,0,0
 2023-06-24 15:08:58.759,-36579.18859,28582.42733,1283.48187,21191.77833,17296.58452,-62740.47497,9153.888721,-55953.34541,-0.022,0.098,-0.986,192,0,0,0,0,0,0,0,0,0,0
 2023-06-24 15:08:58.759,-36664.88518,29295.91737,2011.969925,21863.67176,18019.68581,-63590.57886,9884.008453,-56451.47639,-0.022,0.098,-0.986,192,0,0,0,0,0,0,0,0,0,0
 2023-06-24 15:08:58.759,-36494.58724,29950.3988,2659.008224,22532.23479,18666.41118,-64045.41451,10524.94473,-56735.12003,-0.022,0.098,-0.986,192,0,0,0,0,0,0,0,0,0,0
 2023-06-24 15:08:58.759,-36277.35064,29786.3817,2471.924123,22409.16609,18485.96555,-63491.27006,10341.83924,-56416.85354,-0.022,0.098,-0.986,192,0,0,0,0,0,0,0,0,0,0
 2023-06-24 15:08:58.759,-36329.49726,28881.44897,1566.857286,21534.65408,17582.97742,-62620.66962,9428.524605,-55887.45247,-0.022,0.098,-0.986,192,0,0,0,0,0,0,0,0,0,0
 2023-06-24 15:08:58.759,-36560.30137,28601.2475,1306.057132,21228.18932,17320.36678,-62721.14071,9158.49318,-55935.46402,-0.022,0.098,-0.986,192,0,0,0,0,0,0,0,0,0,0
 2023-06-24 15:08:58.759,-36657.71027,29253.69492,1969.121631,21842.52701,17982.73837,-63573.99387,9830.498377,-56439.87583,-0.022,0.098,-0.986,192,0,0,0,0,0,0,0,0,0,0
 2023-06-24 15:08:58.759,-36482.33849,29989.96138,2697.52028,22583.01796,18706.21964,-64039.37954,10549.75516,-56727.87806,-0.022,0.098,-0.986,192,0,0,0,0,0,0,0,0,0,0
 2023-06-24 15:08:58.759,-36273.57319,29780.92787,2470.515963,22403.24287,18482.1881,-63507.83271,10334.53021,-56423.82728,-0.022,0.094,-0.984,192,255,80,2,240,225,64,0,0,0,0
 2023-06-24 15:08:58.759,-36337.54389,28764.19172,1449.264759,21403.53875,17461.02631,-62644.49658,9314.284839,-55903.29986,-0.022,0.094,-0.984,192,0,0,0,0,0,0,0,0,0,0
 2023-06-24 15:08:58.759,-36572.59483,28454.28478,1155.540485,21074.52107,17166.22915,-62727.82388,9014.458539,-55943.42124,-0.022,0.094,-0.984,192,0,0,0,0,0,0,0,0,0,0
 2023-06-24 15:08:58.759,-36668.75203,29137.15293,1853.585464,21725.64974,17865.1682,-63569.32236,9720.416036,-56438.19945,-0.022,0.094,-0.984,192,0,0,0,0,0,0,0,0,0,0
 2023-06-24 15:08:58.759,-36495.50366,29898.49805,2603.642953,22493.36511,18622.33354,-64051.31537,10470.25001,-56734.56123,-0.022,0.094,-0.984,192,0,0,0,0,0,0,0,0,0,0
 2023-06-24 15:08:58.759,-36283.00563,29731.19524,2420.939794,22352.86204,18429.08036,-63532.19611,10285.0211,-56438.33356,-0.022,0.094,-0.984,192,0,0,0,0,0,0,0,0,0,0
 2023-06-24 15:08:58.759,-36328.87141,28833.59389,1511.022629,21471.28689,17524.12528,-62647.3129,9380.915389,-55902.76341,-0.022,0.094,-0.984,192,0,0,0,0,0,0,0,0,0,0
 2023-06-24 15:08:58.759,-36558.26736,28530.97362,1224.473265,21144.32557,17240.32518,-62709.62956,9094.120156,-55929.56316,-0.022,0.094,-0.984,192,0,0,0,0,0,0,0,0,0,0
 2023-06-24 15:08:58.759,-36667.56739,29123.25014,1840.710859,21696.86069,17846.37038,-63556.87243,9701.998198,-56428.83407,-0.022,0.094,-0.984,192,0,0,0,0,0,0,0,0,0,0
 2023-06-24 15:08:58.759,-36502.70093,29869.46313,2580.933581,22435.85407,18575.19371,-64057.50681,10436.09654,-56737.13168,-0.022,0.094,-0.984,192,0,0,0,0,0,0,0,0,0,0
 2023-06-24 15:08:58.759,-36284.27968,29746.01445,2437.927119,22345.73184,18433.21543,-63549.3846,10298.99094,-56447.05074,-0.018,0.094,-0.986,192,255,112,2,240,225,48,0,0,0,0
 2023-06-24 15:08:58.759,-36321.96472,28846.11086,1530.356888,21491.11289,17543.616,-62655.94067,9403.982389,-55907.94902,-0.018,0.094,-0.986,192,0,0,0,0,0,0,0,0,0,0
 2023-06-24 15:08:58.759,-36551.74065,28514.18746,1220.025268,21136.32365,17231.54095,-62697.78314,9090.923857,-55922.67882,-0.018,0.094,-0.986,192,0,0,0,0,0,0,0,0,0,0
 2023-06-24 15:08:58.759,-36669.46729,29077.74199,1801.550603,21669.97155,17807.70186,-63542.3438,9672.337433,-56420.40746,-0.018,0.094,-0.986,192,0,0,0,0,0,0,0,0,0,0
 2023-06-24 15:08:58.759,-36510.88166,29829.49821,2547.74124,22430.82493,18554.51835,-64061.68658,10421.4785,-56740.70796,-0.018,0.094,-0.986,192,0,0,0,0,0,0,0,0,0,0
 2023-06-24 15:08:58.759,-36284.77142,29776.27871,2473.42169,22405.70157,18477.98598,-63563.57796,10347.87421,-56455.38794,-0.018,0.094,-0.986,192,0,0,0,0,0,0,0,0,0,0
 2023-06-24 15:08:58.759,-36321.0483,28854.20219,1546.874827,21509.53072,17550.67915,-62669.50818,9413.884212,-55915.25804,-0.018,0.094,-0.986,192,0,0,0,0,0,0,0,0,0,0
 2023-06-24 15:08:58.759,-36554.2217,28490.53931,1201.383913,21119.0234,17207.40106,-62695.25739,9077.64692,-55922.14238,-0.018,0.094,-0.986,192,0,0,0,0,0,0,0,0,0,0
 2023-06-24 15:08:58.759,-36670.74134,29087.08502,1812.793531,21675.49243,17815.21205,-63525.64705,9688.251875,-56409.56687,-0.018,0.094,-0.986,192,0,0,0,0,0,0,0,0,0,0
 2023-06-24 15:08:58.759,-36509.4288,29874.98401,2600.133729,22467.10181,18598.39482,-64055.09282,10473.78158,-56732.84015,-0.018,0.094,-0.986,192,0,0,0,0,0,0,0,0,0,0
 2023-06-24 15:08:58.759,-36278.2,29837.36603,2537.079458,22466.56537,18545.5106,-63571.8481,10412.82838,-56457.13138,-0.012,0.098,-0.994,192,255,160,3,16,224,240,0,0,0,0
 2023-06-24 15:08:58.759,-36308.33016,28903.6666,1597.345066,21559.21865,17602.02111,-62673.44209,9471.64112,-55914.7663,-0.012,0.098,-0.994,192,0,0,0,0,0,0,0,0,0,0
 2023-06-24 15:08:58.759,-36536.58617,28551.60428,1252.658815,21184.71517,17259.70414,-62677.66657,9124.674991,-55908.21724,-0.012,0.098,-0.994,192,0,0,0,0,0,0,0,0,0,0
 2023-06-24 15:08:58.759,-36659.14078,29124.52419,1838.788609,21716.26201,17849.1867,-63503.69763,9732.016591,-56393.13834,-0.012,0.098,-0.994,192,0,0,0,0,0,0,0,0,0,0
 2023-06-24 15:08:58.759,-36503.50559,29911.55146,2623.223081,22495.68969,18631.65422,-64047.7838,10518.03804,-56726.08992,-0.012,0.098,-0.994,192,0,0,0,0,0,0,0,0,0,0
 2023-06-24 15:08:58.759,-36278.71409,29833.96856,2532.676164,22456.90941,18533.82063,-63588.05312,10404.42412,-56465.84856,-0.012,0.098,-0.994,192,0,0,0,0,0,0,0,0,0,0
 2023-06-24 15:08:58.759,-36301.60228,28910.88622,1603.022409,21559.44217,17610.06774,-62681.9581,9472.266969,-55920.466,-0.012,0.098,-0.994,192,0,0,0,0,0,0,0,0,0,0
 2023-06-24 15:08:59.237,-36523.01866,28571.85496,1279.838536,21195.53342,17282.99466,-62662.15446,9153.642852,-55898.89656,-0.012,0.098,-0.994,192,0,0,0,0,0,0,0,0,0,0
 2023-06-24 15:08:59.237,-36659.14078,29062.87808,1782.819841,21652.31367,17783.69609,-63491.82886,9665.542503,-56386.14224,-0.012,0.098,-0.994,192,0,0,0,0,0,0,0,0,0,0
 2023-06-24 15:08:59.238,-36509.49586,29855.24742,2576.396176,22453.4896,18578.99351,-64054.98106,10451.80982,-56731.07436,-0.012,0.098,-0.994,192,0,0,0,0,0,0,0,0,0,0
 2023-06-24 15:08:59.238,-36283.855,29807.30293,2507.709266,22439.74327,18512.80999,-63610.02488,10377.53497,-56481.0701,-0.012,0.098,-0.994,192,0,0,0,0,0,0,0,0,0,0
 2023-06-24 15:08:59.238,-36307.43609,28863.8358,1553.267426,21510.49185,17560.35746,-62702.81228,9431.966774,-55935.70989,-0.018,0.096,-0.994,192,255,112,3,0,224,240,0,0,0,0
 2023-06-24 15:08:59.238,-36529.88065,28521.22826,1227.580157,21146.89602,17238.58175,-62666.04366,9106.838299,-55902.22697,-0.018,0.096,-0.994,192,0,0,0,0,0,0,0,0,0,0
 2023-06-24 15:08:59.238,-36651.96587,29152.46387,1880.854592,21750.43783,17886.00002,-63468.76186,9741.963117,-56368.81964,-0.018,0.096,-0.994,192,0,0,0,0,0,0,0,0,0,0
 2023-06-24 15:08:59.238,-36504.64553,29919.32987,2641.14918,22524.0317,18648.95447,-64043.51461,10501.87773,-56720.61374,-0.018,0.096,-0.994,192,0,0,0,0,0,0,0,0,0,0
 2023-06-24 15:08:59.238,-36277.30593,29881.55542,2587.013255,22520.36602,18593.25392,-63613.86938,10445.05959,-56477.47147,-0.018,0.096,-0.994,192,0,0,0,0,0,0,0,0,0,0
 2023-06-24 15:08:59.238,-36299.2777,28921.68211,1614.153578,21576.38479,17624.48461,-62705.65095,9484.538076,-55930.52428,-0.018,0.096,-0.994,192,0,0,0,0,0,0,0,0,0,0
 2023-06-24 15:08:59.238,-36529.67948,28493.91442,1196.86886,21126.39947,17215.22417,-62657.39353,9081.49142,-55891.81106,-0.018,0.096,-0.994,192,0,0,0,0,0,0,0,0,0,0
 2023-06-24 15:08:59.238,-36672.1048,28997.65569,1715.92107,21594.26619,17732.77882,-63465.85613,9600.253058,-56365.86921,-0.018,0.096,-0.994,192,0,0,0,0,0,0,0,0,0,0
 2023-06-24 15:08:59.238,-36531.55703,29784.43709,2501.316667,22373.78328,18514.7546,-64056.70214,10381.51358,-56727.81101,-0.018,0.096,-0.994,192,0,0,0,0,0,0,0,0,0,0
 2023-06-24 15:08:59.238,-36298.80831,29813.56142,2511.844338,22440.39147,18526.3328,-63641.67495,10390.47663,-56493.96706,-0.018,0.096,-0.994,192,0,0,0,0,0,0,0,0,0,0
 2023-06-24 15:08:59.238,-36301.2223,28954.29331,1645.378965,21599.22827,17652.31254,-62719.24081,9521.820786,-55937.56508,-0.02,0.09,-0.986,192,255,96,2,208,225,48,0,0,0,0
 2023-06-24 15:08:59.238,-36518.45891,28553.23595,1263.700576,21168.53251,17269.42715,-62642.30611,9136.119084,-55881.08222,-0.02,0.09,-0.986,192,0,0,0,0,0,0,0,0,0,0
 2023-06-24 15:08:59.238,-36656.7715,29079.37367,1809.016086,21654.81706,17805.80196,-63436.5977,9663.597901,-56345.2609,-0.02,0.09,-0.986,192,0,0,0,0,0,0,0,0,0,0
 2023-06-24 15:08:59.238,-36526.01379,29831.84514,2553.910321,22405.81333,18551.70203,-64045.90625,10410.21322,-56719.3844,-0.02,0.09,-0.986,192,0,0,0,0,0,0,0,0,0,0
 2023-06-24 15:08:59.238,-36307.32433,29779.18443,2484.128175,22392.49169,18485.00442,-63660.62923,10348.00832,-56505.00882,-0.02,0.09,-0.986,192,0,0,0,0,0,0,0,0,0,0
 2023-06-24 15:08:59.238,-36311.79468,28894.21182,1589.611362,21531.34603,17593.75096,-62742.41957,9464.332099,-55951.78079,-0.02,0.09,-0.986,192,0,0,0,0,0,0,0,0,0,0
 2023-06-24 15:08:59.238,-36532.20523,28459.98448,1170.85143,21063.3005,17166.83265,-62652.43145,9039.827769,-55887.67599,-0.02,0.09,-0.986,192,0,0,0,0,0,0,0,0,0,0
 2023-06-24 15:08:59.238,-36672.8424,28983.86466,1708.276773,21551.61906,17699.74294,-63438.29643,9562.9927,-56346.24438,-0.02,0.09,-0.986,192,0,0,0,0,0,0,0,0,0,0
 2023-06-24 15:08:59.238,-36540.1401,29776.234,2494.924068,22337.34993,18484.28917,-64056.43392,10350.3329,-56723.2289,-0.02,0.09,-0.986,192,0,0,0,0,0,0,0,0,0,0
 2023-06-24 15:08:59.238,-36305.08915,29833.11919,2526.864711,22440.54794,18530.84785,-63676.47662,10382.05002,-56509.43446,-0.02,0.09,-0.986,192,0,0,0,0,0,0,0,0,0,0
 2023-06-24 15:08:59.238,-36300.06001,28972.28646,1647.681194,21615.83562,17660.40387,-62750.37679,9519.18328,-55950.99848,-0.02,0.09,-0.984,192,255,96,2,208,225,64,0,0,0,0
 2023-06-24 15:08:59.238,-36519.88942,28520.62476,1219.265308,21136.86009,17220.87916,-62637.58989,9084.106575,-55873.05795,-0.02,0.09,-0.984,192,0,0,0,0,0,0,0,0,0,0
 2023-06-24 15:08:59.238,-36671.00956,28975.10278,1696.743273,21554.52479,17691.58455,-63420.21387,9548.799342,-56331.55928,-0.02,0.09,-0.984,192,0,0,0,0,0,0,0,0,0,0
 2023-06-24 15:08:59.238,-36542.62114,29769.81905,2492.286562,22348.95049,18481.51755,-64052.67883,10338.70999,-56719.83143,-0.02,0.09,-0.984,192,0,0,0,0,0,0,0,0,0,0
 2023-06-24 15:08:59.238,-36301.98226,29882.06951,2588.510822,22495.75674,18580.55813,-63684.74676,10444.18787,-56511.73669,-0.02,0.09,-0.984,192,0,0,0,0,0,0,0,0,0,0
 2023-06-24 15:08:59.238,-36291.27577,29033.15026,1724.437085,21672.89962,17724.39691,-62755.67415,9593.681645,-55951.3114,-0.02,0.09,-0.984,192,0,0,0,0,0,0,0,0,0,0
 2023-06-24 15:08:59.238,-36505.27138,28594.49727,1298.457539,21206.61988,17298.70794,-62616.93688,9176.374576,-55857.27761,-0.02,0.09,-0.984,192,0,0,0,0,0,0,0,0,0,0
 2023-06-24 15:08:59.238,-36653.97753,29079.26191,1799.181318,21659.33212,17798.64941,-63383.04292,9676.226637,-56302.47966,-0.02,0.09,-0.984,192,0,0,0,0,0,0,0,0,0,0
 2023-06-24 15:08:59.238,-36526.32672,29909.62921,2627.447561,22480.02112,18620.36659,-64023.04042,10502.43652,-56691.08709,-0.02,0.09,-0.984,192,0,0,0,0,0,0,0,0,0,0
 2023-06-24 15:08:59.238,-36293.5333,29975.94684,2673.670968,22572.1103,18665.69593,-63679.04707,10548.61522,-56500.71728,-0.02,0.09,-0.984,192,0,0,0,0,0,0,0,0,0,0
 2023-06-24 15:08:59.238,-36287.63244,29061.49227,1748.554617,21693.0609,17744.44643,-62758.37872,9614.491119,-55949.88089,-0.02,0.096,-0.992,192,255,96,3,0,225,0,0,0,0,0
 2023-06-24 15:08:59.238,-36510.25581,28543.26708,1243.382841,21153.91447,17240.99573,-62610.56663,9120.830491,-55855.17655,-0.02,0.096,-0.992,192,0,0,0,0,0,0,0,0,0,0
 2023-06-24 15:08:59.238,-36667.23212,28996.78397,1716.010477,21564.31485,17709.73417,-63374.92923,9594.508659,-56301.63029,-0.02,0.096,-0.992,192,0,0,0,0,0,0,0,0,0,0
 2023-06-24 15:08:59.238,-36552.34415,29785.10765,2506.368161,22341.66382,18483.61862,-64035.55739,10368.97425,-56705.23574,-0.02,0.096,-0.992,192,0,0,0,0,0,0,0,0,0,0
 2023-06-24 15:08:59.238,-36317.02498,29882.11422,2584.733377,22494.03566,18576.22189,-63707.76906,10444.65726,-56523.94074,-0.02,0.096,-0.992,192,0,0,0,0,0,0,0,0,0,0
 2023-06-24 15:08:59.238,-36294.27091,29043.36501,1731.097905,21685.86364,17725.64861,-62777.46711,9585.344444,-55963.87308,-0.02,0.096,-0.992,192,0,0,0,0,0,0,0,0,0,0
 2023-06-24 15:08:59.238,-36505.85252,28558.24275,1258.202047,21171.10296,17251.70222,-62603.1682,9123.222127,-55847.77812,-0.02,0.096,-0.992,192,0,0,0,0,0,0,0,0,0,0
 2023-06-24 15:08:59.238,-36662.11357,29022.91316,1739.993899,21604.34682,17733.40466,-63354.05271,9608.702017,-56283.77125,-0.02,0.096,-0.992,192,0,0,0,0,0,0,0,0,0,0
 2023-06-24 15:08:59.238,-36552.00887,29806.2971,2519.712152,22385.6744,18515.60396,-64029.76829,10393.78469,-56695.13276,-0.02,0.096,-0.992,192,0,0,0,0,0,0,0,0,0,0
 2023-06-24 15:08:59.238,-36315.97445,29912.19967,2605.78872,22518.80139,18600.98763,-63721.22481,10482.05173,-56525.39361,-0.02,0.096,-0.992,192,0,0,0,0,0,0,0,0,0,0
 2023-06-24 15:08:59.238,-36293.39919,29047.27656,1731.723753,21678.08523,17727.10147,-62795.97435,9606.019808,-55970.4892,-0.018,0.096,-0.99,192,255,112,3,0,225,16,0,0,0,0
 2023-06-24 15:08:59.238,-36510.0323,28505.42557,1204.04377,21122.73379,17201.32139,-62607.03505,9072.058984,-55849.02982,-0.018,0.096,-0.99,192,0,0,0,0,0,0,0,0,0,0
 2023-06-24 15:08:59.238,-36664.5052,29002.05898,1721.68782,21584.36436,17710.11415,-63344.4191,9566.859551,-56277.87039,-0.018,0.096,-0.99,192,0,0,0,0,0,0,0,0,0,0
 2023-06-24 15:08:59.238,-36551.42773,29834.57206,2553.37388,22412.72001,18542.4037,-64024.04625,10400.13258,-56691.35531,-0.018,0.096,-0.99,192,0,0,0,0,0,0,0,0,0,0
 2023-06-24 15:08:59.238,-36319.1931,29919.57574,2612.471892,22533.41943,18613.52695,-63735.03819,10474.27332,-56533.41788,-0.018,0.096,-0.99,192,0,0,0,0,0,0,0,0,0,0
 2023-06-24 15:08:59.238,-36297.15428,29026.15416,1713.820006,21669.03277,17714.40568,-62811.46411,9586.260865,-55980.32397,-0.018,0.096,-0.99,192,0,0,0,0,0,0,0,0,0,0
 2023-06-24 15:08:59.238,-36508.04299,28504.71032,1214.035,21125.43835,17211.35732,-62597.06618,9074.092993,-55842.19019,-0.018,0.096,-0.99,192,0,0,0,0,0,0,0,0,0,0
 2023-06-24 15:08:59.238,-36676.79866,28917.7482,1642.473238,21503.20518,17639.81791,-63335.59016,9502.195955,-56273.02006,-0.018,0.096,-0.99,192,0,0,0,0,0,0,0,0,0,0
 2023-06-24 15:08:59.238,-36571.41019,29756.34095,2482.474146,22331.27026,18473.02389,-64030.4612,10336.96655,-56694.48456,-0.018,0.096,-0.99,192,0,0,0,0,0,0,0,0,0,0
 2023-06-24 15:08:59.238,-36335.62164,29876.36982,2579.190144,22494.43799,18582.59214,-63759.55805,10449.12761,-56547.7677,-0.018,0.096,-0.99,192,0,0,0,0,0,0,0,0,0,0
 2023-06-24 15:08:59.238,-36299.3224,29026.95883,1712.925936,21685.30484,17726.60973,-62834.37465,9590.664159,-55995.18788,-0.016,0.092,-0.994,192,255,128,2,224,224,240,0,0,0,0
 2023-06-24 15:08:59.238,-36508.66884,28480.03399,1181.066177,21116.4753,17189.56437,-62604.19638,9047.181493,-55846.63818,-0.016,0.092,-0.994,192,0,0,0,0,0,0,0,0,0,0
 2023-06-24 15:08:59.238,-36669.48964,28941.84338,1658.342976,21530.63077,17662.7508,-63325.30836,9523.161891,-56261.82184,-0.016,0.092,-0.994,192,0,0,0,0,0,0,0,0,0,0
 2023-06-24 15:08:59.238,-36572.68424,29739.13011,2454.71328,22316.71927,18459.05405,-64036.31735,10314.07837,-56693.99282,-0.016,0.092,-0.994,192,0,0,0,0,0,0,0,0,0,0
 2023-06-24 15:08:59.238,-36332.17947,29900.01796,2599.083197,22516.16389,18604.78742,-63777.32769,10458.51534,-56554.85321,-0.016,0.092,-0.994,192,0,0,0,0,0,0,0,0,0,0
 2023-06-24 15:08:59.238,-36289.21941,29085.20747,1766.190143,21737.87615,17776.43177,-62850.69142,9629.422084,-56001.66988,-0.016,0.092,-0.994,192,0,0,0,0,0,0,0,0,0,0
 2023-06-24 15:08:59.238,-36495.28015,28543.37884,1236.789076,21175.10392,17248.2377,-62596.41797,9113.454415,-55838.43509,-0.016,0.092,-0.994,192,0,0,0,0,0,0,0,0,0,0
 2023-06-24 15:08:59.238,-36667.09801,28937.06011,1647.36827,21531.43543,17654.43595,-63311.89732,9524.145368,-56252.83644,-0.016,0.092,-0.994,192,0,0,0,0,0,0,0,0,0,0
 2023-06-24 15:08:59.238,-36572.05839,29765.99691,2475.075719,22349.15165,18481.4505,-64030.30473,10352.14339,-56688.42723,-0.016,0.092,-0.994,192,0,0,0,0,0,0,0,0,0,0
 2023-06-24 15:08:59.238,-36333.58763,29919.97807,2616.092875,22531.36307,18617.50556,-63791.94573,10475.39091,-56561.06699,-0.016,0.092,-0.994,192,0,0,0,0,0,0,0,0,0,0
 2023-06-24 15:08:59.238,-36284.34673,29095.22105,1778.05892,21738.47964,17781.12564,-62866.4941,9639.212148,-56006.76608,-0.022,0.092,-0.988,192,255,80,2,224,225,32,0,0,0,0
 2023-06-24 15:08:59.238,-36490.78745,28508.86774,1202.613259,21134.4908,17212.87724,-62591.27707,9079.05508,-55830.90256,-0.022,0.092,-0.988,192,0,0,0,0,0,0,0,0,0,0
 2023-06-24 15:08:59.238,-36662.71706,28901.76671,1614.377095,21493.05749,17620.72952,-63292.60776,9481.744108,-56238.03958,-0.022,0.092,-0.988,192,0,0,0,0,0,0,0,0,0,0
 2023-06-24 15:08:59.238,-36573.98064,29727.66366,2441.749268,22306.95156,18439.87625,-64024.94031,10296.80047,-56684.31451,-0.022,0.092,-0.988,192,0,0,0,0,0,0,0,0,0,0
 2023-06-24 15:08:59.238,-36337.43213,29902.92369,2597.540927,22513.01229,18599.91474,-63808.41897,10462.11397,-56569.71712,-0.022,0.092,-0.988,192,0,0,0,0,0,0,0,0,0,0
 2023-06-24 15:08:59.238,-36280.14461,29111.60488,1796.856737,21746.74979,17800.28108,-62885.24722,9674.59496,-56016.24322,-0.022,0.092,-0.988,192,0,0,0,0,0,0,0,0,0,0
 2023-06-24 15:08:59.238,-36482.4726,28519.93186,1222.215739,21135.56369,17221.9297,-62586.42675,9103.507889,-55825.24756,-0.022,0.092,-0.988,192,0,0,0,0,0,0,0,0,0,0
 2023-06-24 15:08:59.238,-36654.73749,28887.12631,1605.503452,21480.49581,17607.20672,-63274.59225,9477.989015,-56222.21455,-0.022,0.092,-0.988,192,0,0,0,0,0,0,0,0,0,0
 2023-06-24 15:08:59.238,-36565.53168,29739.80066,2463.117535,22321.88252,18459.79166,-64016.31254,10316.49236,-56671.90929,-0.022,0.092,-0.988,192,0,0,0,0,0,0,0,0,0,0
 2023-06-24 15:08:59.238,-36321.18241,29964.10042,2668.06068,22578.59231,18666.47824,-63813.04578,10518.30626,-56567.03491,-0.022,0.092,-0.988,192,0,0,0,0,0,0,0,0,0,0
 2023-06-24 15:08:59.238,-36259.87157,29172.80396,1859.218104,21812.32981,17861.43546,-62894.47849,9719.410207,-56019.10424,-0.024,0.09,-0.992,192,255,64,2,208,225,0,0,0,0,0
 2023-06-24 15:08:59.238,-36464.88177,28538.01442,1242.846399,21154.33915,17239.40876,-62577.95543,9110.503985,-55819.65963,-0.024,0.09,-0.992,192,0,0,0,0,0,0,0,0,0,0
 2023-06-24 15:08:59.239,-36648.45665,28845.19444,1562.632807,21421.04017,17560.58098,-63261.98587,9429.128102,-56214.68201,-0.024,0.09,-0.992,192,0,0,0,0,0,0,0,0,0,0
 2023-06-24 15:08:59.239,-36565.7999,29712.21861,2424.694887,22283.1246,18427.69455,-64015.06084,10288.75384,-56668.44477,-0.024,0.09,-0.992,192,0,0,0,0,0,0,0,0,0,0
 2023-06-24 15:08:59.239,-36332.40298,29918.23464,2614.774122,22514.26399,18613.59401,-63838.83969,10468.35011,-56580.71418,-0.024,0.09,-0.992,192,0,0,0,0,0,0,0,0,0,0
 2023-06-24 15:08:59.239,-36264.05135,29170.7923,1853.518409,21797.89058,17851.01954,-62920.85355,9704.97098,-56032.44824,-0.024,0.09,-0.992,192,0,0,0,0,0,0,0,0,0,0
 2023-06-24 15:08:59.239,-36461.50666,28552.83362,1242.756992,21170.70063,17242.538,-62581.3082,9100.244534,-55818.67615,-0.024,0.09,-0.992,192,0,0,0,0,0,0,0,0,0,0
 2023-06-24 15:08:59.239,-36643.04753,28872.24005,1584.492813,21453.00316,17582.19511,-63246.58552,9445.042544,-56202.18738,-0.024,0.09,-0.992,192,0,0,0,0,0,0,0,0,0,0
 2023-06-24 15:08:59.239,-36569.71146,29706.78713,2418.145826,22270.83114,18419.15618,-64010.52344,10290.54198,-56665.18142,-0.024,0.09,-0.992,192,0,0,0,0,0,0,0,0,0,0
 2023-06-24 15:08:59.239,-36341.54485,29908.33281,2602.547717,22501.99288,18609.45894,-63858.17395,10473.37925,-56590.34778,-0.024,0.09,-0.992,192,0,0,0,0,0,0,0,0,0,0
 2023-06-24 15:08:59.239,-36274.9143,29123.74188,1805.015123,21761.16666,17814.65326,-62953.95648,9659.954567,-56051.80485,-0.022,0.094,-0.988,192,255,80,2,240,225,32,0,0,0,0
 2023-06-24 15:08:59.239,-36474.71654,28447.48985,1144.543427,21073.91758,17147.38663,-62598.80961,9005.696655,-55827.14746,-0.022,0.094,-0.988,192,0,0,0,0,0,0,0,0,0,0
 2023-06-24 15:08:59.239,-36651.98823,28790.2315,1502.081931,21367.6642,17501.59472,-63246.74198,9363.279863,-56198.54405,-0.022,0.094,-0.988,192,0,0,0,0,0,0,0,0,0,0
 2023-06-24 15:08:59.239,-36578.13806,29660.47432,2374.135241,22215.08589,18365.53435,-64015.93256,10231.93571,-56663.21446,-0.022,0.094,-0.988,192,0,0,0,0,0,0,0,0,0,0
 2023-06-24 15:08:59.239,-36345.79168,29920.69333,2616.741075,22502.88695,18609.28012,-63876.52473,10484.59983,-56596.91919,-0.022,0.094,-0.988,192,0,0,0,0,0,0,0,0,0,0
 2023-06-24 15:08:59.239,-36268.43229,29175.26265,1853.563112,21800.19281,17855.66871,-62971.32378,9722.248879,-56059.44914,-0.022,0.094,-0.988,192,0,0,0,0,0,0,0,0,0,0
 2023-06-24 15:08:59.239,-36465.7982,28478.67053,1170.180877,21094.36942,17170.1407,-62594.07104,9032.339934,-55823.37002,-0.022,0.094,-0.988,192,0,0,0,0,0,0,0,0,0,0
 2023-06-24 15:08:59.239,-36651.92117,28775.34524,1484.625218,21352.66618,17481.23228,-63232.3251,9349.399429,-56191.99499,-0.022,0.094,-0.988,192,0,0,0,0,0,0,0,0,0,0
 2023-06-24 15:08:59.239,-36575.65702,29711.10102,2420.492759,22263.74564,18414.8423,-64003.5944,10288.46327,-56657.17949,-0.022,0.094,-0.988,192,0,0,0,0,0,0,0,0,0,0
 2023-06-24 15:08:59.239,-36336.73922,30041.68332,2730.802027,22624.18987,18731.2983,-63879.63162,10596.76088,-56599.95903,-0.022,0.094,-0.988,192,0,0,0,0,0,0,0,0,0,0
 2023-06-24 15:08:59.239,-36254.95419,29293.03399,1976.520059,21915.05842,17973.52945,-62985.89712,9840.154331,-56069.48508,-0.022,0.102,-0.99,192,255,80,3,48,225,16,0,0,0,0
 2023-06-24 15:08:59.239,-36446.19572,28577.46525,1274.921152,21190.43722,17272.28818,-62585.91266,9140.254157,-55816.12805,-0.022,0.102,-0.99,192,0,0,0,0,0,0,0,0,0,0
 2023-06-24 15:08:59.239,-36635.09031,28822.30625,1535.117809,21405.77393,17533.06598,-63207.53702,9389.006721,-56171.94547,-0.022,0.102,-0.99,192,0,0,0,0,0,0,0,0,0,0
 2023-06-24 15:08:59.239,-36572.95246,29696.59474,2416.223576,22264.72911,18410.70722,-63991.79268,10270.60423,-56646.62947,-0.022,0.102,-0.99,192,0,0,0,0,0,0,0,0,0,0
 2023-06-24 15:08:59.239,-36346.26107,29987.68151,2692.155861,22582.23564,18682.07975,-63896.30603,10543.83195,-56608.49739,-0.022,0.102,-0.99,192,0,0,0,0,0,0,0,0,0,0
 2023-06-24 15:08:59.239,-36261.63736,29247.6823,1931.011907,21874.49001,17928.96008,-63015.28967,9797.283685,-56087.36647,-0.022,0.102,-0.99,192,0,0,0,0,0,0,0,0,0,0
 2023-06-24 15:08:59.239,-36442.99942,28564.0989,1256.972701,21187.06211,17262.85574,-62593.02051,9134.889738,-55821.06779,-0.022,0.102,-0.99,192,0,0,0,0,0,0,0,0,0,0
 2023-06-24 15:08:59.239,-36631.26816,28813.3432,1528.434638,21395.42507,17524.997,-63197.65755,9392.404186,-56166.514,-0.022,0.102,-0.99,192,0,0,0,0,0,0,0,0,0,0
 2023-06-24 15:08:59.239,-36582.74252,29614.34032,2333.946804,22176.79735,18327.73755,-63994.96663,10201.0456,-56651.27863,-0.022,0.102,-0.99,192,0,0,0,0,0,0,0,0,0,0
 2023-06-24 15:08:59.239,-36354.71003,29931.80215,2637.572901,22518.26495,18629.59786,-63917.40607,10492.78057,-56623.62953,-0.022,0.102,-0.99,192,0,0,0,0,0,0,0,0,0,0
 2023-06-24 15:08:59.239,-36262.62084,29215.04876,1904.279221,21834.63685,17896.14772,-63041.68708,9766.371222,-56105.35963,-0.02,0.096,-0.984,192,255,96,3,0,225,64,0,0,0,0
 2023-06-24 15:08:59.239,-36448.14032,28458.21869,1152.813572,21072.46471,17151.92403,-62608.62203,9026.819054,-55835.41761,-0.02,0.096,-0.984,192,0,0,0,0,0,0,0,0,0,0
 2023-06-24 15:08:59.239,-36640.00769,28690.56507,1406.8635,21274.27861,17405.07989,-63201.83733,9273.179981,-56175.87938,-0.02,0.096,-0.984,192,0,0,0,0,0,0,0,0,0,0
 2023-06-24 15:08:59.239,-36585.24592,29583.71843,2303.39197,22150.39994,18302.52478,-63996.73241,10165.75219,-56657.38066,-0.02,0.096,-0.984,192,0,0,0,0,0,0,0,0,0,0
 2023-06-24 15:08:59.239,-36354.77708,29949.72824,2655.767221,22542.20367,18654.90003,-63931.53237,10530.24209,-56634.98421,-0.02,0.096,-0.984,192,0,0,0,0,0,0,0,0,0,0
 2023-06-24 15:08:59.239,-36258.41871,29238.6522,1929.559044,21863.5153,17925.89789,-63060.95428,9809.532441,-56121.22937,-0.02,0.096,-0.984,192,0,0,0,0,0,0,0,0,0,0
 2023-06-24 15:08:59.239,-36435.60099,28516.0203,1215.331401,21135.98837,17214.62068,-62601.62593,9093.941342,-55831.52841,-0.02,0.096,-0.984,192,0,0,0,0,0,0,0,0,0,0
 2023-06-24 15:08:59.239,-36624.54028,28750.55715,1470.141288,21342.40673,17473.47623,-63175.35051,9337.307136,-56157.12627,-0.02,0.096,-0.984,192,0,0,0,0,0,0,0,0,0,0
 2023-06-24 15:08:59.239,-36583.86011,29563.42305,2290.182089,22140.67693,18288.73376,-63986.33885,10140.62883,-56648.86464,-0.02,0.096,-0.984,192,0,0,0,0,0,0,0,0,0,0
 2023-06-24 15:08:59.239,-36354.91119,29940.67579,2652.727384,22534.8723,18647.21103,-63941.50125,10505.90104,-56640.08041,-0.02,0.096,-0.984,192,0,0,0,0,0,0,0,0,0,0
 2023-06-24 15:08:59.239,-36249.38861,29286.7308,1977.794108,21915.97485,17975.69757,-63075.3041,9842.233043,-56127.93489,-0.016,0.092,-0.988,192,255,128,2,224,225,32,0,0,0,0
 2023-06-24 15:08:59.239,-36423.08401,28565.19414,1275.077614,21193.94644,17266.27556,-62595.4792,9123.37859,-55826.05223,-0.016,0.092,-0.988,192,0,0,0,0,0,0,0,0,0,0
 2023-06-24 15:08:59.239,-36623.89208,28730.0606,1452.416355,21327.2299,17448.35287,-63162.05122,9310.999133,-56149.95136,-0.016,0.092,-0.988,192,0,0,0,0,0,0,0,0,0,0
 2023-06-24 15:08:59.239,-36587.21287,29543.50764,2265.21519,22117.52053,18264.61622,-63982.40495,10132.73867,-56647.56824,-0.016,0.092,-0.988,192,0,0,0,0,0,0,0,0,0,0
 2023-06-24 15:08:59.239,-36353.34657,29985.26752,2692.066454,22566.67883,18684.89607,-63955.76167,10556.34893,-56648.35055,-0.016,0.092,-0.988,192,0,0,0,0,0,0,0,0,0,0
 2023-06-24 15:08:59.239,-36243.08541,29349.31568,2038.412039,21966.60155,18027.62068,-63098.01347,9902.739215,-56140.98831,-0.016,0.092,-0.988,192,0,0,0,0,0,0,0,0,0,0
 2023-06-24 15:08:59.239,-36420.29004,28546.821,1244.567483,21169.47128,17239.81109,-62606.02923,9100.937438,-55834.47884,-0.016,0.092,-0.988,192,0,0,0,0,0,0,0,0,0,0
 2023-06-24 15:08:59.718,-36613.85615,28746.6456,1462.98873,21327.90045,17456.69007,-63150.33891,9324.857214,-56142.7988,-0.016,0.092,-0.988,192,0,0,0,0,0,0,0,0,0,0
 2023-06-24 15:08:59.718,-36568.07978,29661.74837,2380.371378,22216.5611,18373.08924,-63963.2495,10242.32927,-56631.81026,-0.016,0.092,-0.988,192,0,0,0,0,0,0,0,0,0,0
 2023-06-24 15:08:59.718,-36349.01033,30018.59397,2718.642678,22601.74872,18711.38289,-63965.52938,10573.78329,-56655.61487,-0.016,0.092,-0.988,192,0,0,0,0,0,0,0,0,0,0
 2023-06-24 15:08:59.718,-36239.59854,29355.77534,2039.909606,21973.82116,18031.1299,-63118.26415,9906.695474,-56158.8697,-0.01,0.094,-0.988,192,255,176,2,240,225,32,0,0,0,0
 2023-06-24 15:08:59.718,-36409.82943,28562.8472,1261.733623,21171.03591,17254.18326,-62605.17986,9131.425218,-55837.60808,-0.01,0.094,-0.988,192,0,0,0,0,0,0,0,0,0,0
 2023-06-24 15:08:59.718,-36606.12245,28739.13541,1451.164657,21327.56517,17456.17598,-63135.89968,9329.372266,-56136.54031,-0.01,0.094,-0.988,192,0,0,0,0,0,0,0,0,0,0
 2023-06-24 15:08:59.718,-36573.04186,29585.46187,2295.747673,22163.47571,18312.31485,-63964.45649,10177.82213,-56637.93464,-0.01,0.094,-0.988,192,0,0,0,0,0,0,0,0,0,0
 2023-06-24 15:08:59.718,-36357.10166,29937.88182,2646.424192,22532.34655,18641.89132,-63988.75284,10502.66004,-56676.84903,-0.01,0.094,-0.988,192,0,0,0,0,0,0,0,0,0,0
 2023-06-24 15:08:59.718,-36240.04558,29318.31382,2009.824158,21934.97383,18000.64212,-63146.18148,9874.86659,-56182.24963,-0.01,0.094,-0.988,192,0,0,0,0,0,0,0,0,0,0
 2023-06-24 15:08:59.718,-36403.45918,28537.27681,1230.597643,21153.10981,17225.72949,-62609.35964,9097.741139,-55845.74411,-0.01,0.094,-0.988,192,0,0,0,0,0,0,0,0,0,0
 2023-06-24 15:08:59.718,-36601.27212,28716.22488,1431.070439,21299.0667,17423.94476,-63121.59456,9287.77567,-56134.21573,-0.01,0.094,-0.988,192,0,0,0,0,0,0,0,0,0,0
 2023-06-24 15:08:59.718,-36576.41698,29552.0013,2270.624312,22118.92869,18264.10213,-63957.48275,10119.1041,-56639.61102,-0.01,0.094,-0.988,192,0,0,0,0,0,0,0,0,0,0
 2023-06-24 15:08:59.718,-36360.63324,29938.55237,2642.467933,22528.39029,18638.09152,-64001.58274,10492.04296,-56686.41558,-0.01,0.094,-0.988,192,0,0,0,0,0,0,0,0,0,0
 2023-06-24 15:08:59.718,-36235.10584,29368.717,2056.002862,21996.91051,18056.54383,-63163.16881,9916.105558,-56192.48673,-0.016,0.094,-0.984,192,255,128,2,240,225,64,0,0,0,0
 2023-06-24 15:08:59.718,-36398.47474,28514.61214,1207.396532,21135.83191,17208.20572,-62613.56176,9072.327205,-55849.4098,-0.016,0.094,-0.984,192,0,0,0,0,0,0,0,0,0,0
 2023-06-24 15:08:59.718,-36595.75124,28669.88971,1379.527316,21248.4847,17372.91573,-63111.53628,9241.172283,-56128.22546,-0.016,0.094,-0.984,192,0,0,0,0,0,0,0,0,0,0
 2023-06-24 15:08:59.718,-36579.70268,29487.74004,2202.786768,22053.12515,18196.68927,-63957.37099,10064.85642,-56640.32628,-0.016,0.094,-0.984,192,0,0,0,0,0,0,0,0,0,0
 2023-06-24 15:08:59.718,-36361.32614,29935.31137,2634.264843,22524.27757,18632.34712,-64017.58659,10500.11194,-56699.04431,-0.016,0.094,-0.984,192,0,0,0,0,0,0,0,0,0,0
 2023-06-24 15:08:59.718,-36231.03782,29394.22034,2076.61117,22010.38861,18073.75468,-63186.86166,9951.287204,-56209.85403,-0.016,0.094,-0.984,192,0,0,0,0,0,0,0,0,0,0
 2023-06-24 15:08:59.718,-36391.03161,28538.72967,1230.552939,21148.46064,17225.43892,-62615.64048,9100.803328,-55852.22612,-0.016,0.094,-0.984,192,0,0,0,0,0,0,0,0,0,0
 2023-06-24 15:08:59.719,-36590.38682,28695.90714,1403.890717,21273.13867,17397.32383,-63096.31474,9255.656213,-56119.35182,-0.016,0.094,-0.984,192,0,0,0,0,0,0,0,0,0,0
 2023-06-24 15:08:59.719,-36572.48307,29560.20439,2271.808955,22114.83832,18268.99716,-63940.31661,10136.4267,-56625.95411,-0.016,0.094,-0.984,192,0,0,0,0,0,0,0,0,0,0
 2023-06-24 15:08:59.719,-36346.30577,30062.80572,2771.258685,22638.6291,18763.17188,-64010.00935,10632.68013,-56687.30965,-0.016,0.094,-0.984,192,0,0,0,0,0,0,0,0,0,0
 2023-06-24 15:08:59.719,-36225.40518,29425.31162,2107.814206,22055.60619,18111.43972,-63196.11528,9970.129725,-56211.77628,-0.02,0.094,-0.986,192,255,96,2,240,225,48,0,0,0,0
 2023-06-24 15:08:59.719,-36382.31443,28557.79571,1245.103925,21191.62186,17252.43983,-62607.92912,9112.694456,-55844.47007,-0.02,0.094,-0.986,192,0,0,0,0,0,0,0,0,0,0
 2023-06-24 15:08:59.719,-36585.6259,28675.99173,1386.679874,21270.92585,17386.34913,-63079.30506,9240.948765,-56107.50539,-0.02,0.094,-0.986,192,0,0,0,0,0,0,0,0,0,0
 2023-06-24 15:08:59.719,-36576.23816,29527.21322,2247.423201,22093.20183,18241.50452,-63933.94636,10101.51328,-56621.03672,-0.02,0.094,-0.986,192,0,0,0,0,0,0,0,0,0,0
 2023-06-24 15:08:59.719,-36358.55453,30006.07699,2711.400713,22585.29783,18701.45872,-64029.74594,10569.67057,-56700.09484,-0.02,0.094,-0.986,192,0,0,0,0,0,0,0,0,0,0
 2023-06-24 15:08:59.719,-36222.49946,29465.92474,2149.366099,22077.73442,18144.67676,-63213.28142,10015.57082,-56222.16984,-0.02,0.094,-0.986,192,0,0,0,0,0,0,0,0,0,0
 2023-06-24 15:08:59.719,-36373.82077,28580.41568,1271.501335,21196.74041,17272.13171,-62604.84458,9140.768247,-55840.40205,-0.02,0.094,-0.986,192,0,0,0,0,0,0,0,0,0,0
 2023-06-24 15:08:59.719,-36590.1633,28588.05997,1299.105739,21177.69673,17298.70794,-63069.11267,9163.455267,-56101.55983,-0.02,0.094,-0.986,192,0,0,0,0,0,0,0,0,0,0
 2023-06-24 15:08:59.719,-36579.45682,29478.62053,2194.22605,22042.12809,18196.19753,-63923.68691,10068.99149,-56614.3312,-0.02,0.094,-0.986,192,0,0,0,0,0,0,0,0,0,0
 2023-06-24 15:08:59.719,-36354.19594,30025.07598,2726.197568,22602.88866,18725.30803,-64035.15506,10606.6627,-56700.43012,-0.02,0.094,-0.986,192,0,0,0,0,0,0,0,0,0,0
 2023-06-24 15:08:59.719,-36214.02815,29482.1521,2164.721747,22102.61191,18168.01198,-63226.78187,10057.07801,-56227.78013,-0.022,0.096,-0.992,192,255,80,3,0,225,0,0,0,0,0
 2023-06-24 15:08:59.719,-36367.15995,28530.63834,1220.919337,21168.89014,17227.38352,-62607.59385,9094.321322,-55842.95015,-0.022,0.096,-0.992,192,0,0,0,0,0,0,0,0,0,0
 2023-06-24 15:08:59.719,-36577.42281,28584.39429,1298.301077,21183.19526,17296.9198,-63051.96888,9161.153038,-56089.89222,-0.022,0.096,-0.992,192,0,0,0,0,0,0,0,0,0,0
 2023-06-24 15:08:59.719,-36577.15459,29438.58855,2166.398128,22002.18552,18152.65633,-63916.31084,10019.01299,-56608.18447,-0.022,0.096,-0.992,192,0,0,0,0,0,0,0,0,0,0
 2023-06-24 15:08:59.719,-36358.95686,29964.65921,2676.241419,22545.39997,18663.4384,-64050.9801,10533.88542,-56710.399,-0.022,0.096,-0.992,192,0,0,0,0,0,0,0,0,0,0
 2023-06-24 15:08:59.719,-36207.63555,29471.60208,2161.547799,22088.64207,18156.0091,-63246.25024,10034.4804,-56240.09594,-0.022,0.096,-0.992,192,0,0,0,0,0,0,0,0,0,0
 2023-06-24 15:08:59.719,-36343.78002,28596.88891,1284.599457,21218.01927,17285.94509,-62595.76977,9167.724451,-55834.41178,-0.022,0.096,-0.992,192,0,0,0,0,0,0,0,0,0,0
 2023-06-24 15:08:59.719,-36558.62499,28600.01816,1309.096969,21184.67047,17300.18315,-63029.28186,9186.142288,-56075.05066,-0.022,0.096,-0.992,192,0,0,0,0,0,0,0,0,0,0
 2023-06-24 15:08:59.719,-36564.41409,29467.3776,2196.550631,22017.98821,18171.29769,-63896.95423,10062.06245,-56594.54991,-0.022,0.096,-0.992,192,0,0,0,0,0,0,0,0,0,0
 2023-06-24 15:08:59.719,-36350.91023,30009.69797,2721.079018,22578.14527,18703.80565,-64050.19779,10580.31,-56709.01319,-0.022,0.096,-0.992,192,0,0,0,0,0,0,0,0,0,0
 2023-06-24 15:08:59.719,-36204.30514,29471.04329,2158.820886,22094.81115,18151.91873,-63262.4329,10021.29287,-56251.80826,-0.018,0.094,-0.992,192,255,112,2,240,225,0,0,0,0,0
 2023-06-24 15:08:59.719,-36339.712,28557.79571,1252.681166,21184.3799,17244.50496,-62596.79795,9107.262982,-55838.16687,-0.018,0.094,-0.992,192,0,0,0,0,0,0,0,0,0,0
 2023-06-24 15:08:59.719,-36550.48895,28590.9657,1303.307867,21175.79683,17295.13166,-63009.03118,9170.607826,-56064.34418,-0.018,0.094,-0.992,192,0,0,0,0,0,0,0,0,0,0
 2023-06-24 15:08:59.719,-36564.4588,29425.75865,2147.779125,21985.2429,18139.66997,-63884.90664,10014.47559,-56586.65974,-0.018,0.094,-0.992,192,0,0,0,0,0,0,0,0,0,0
 2023-06-24 15:08:59.719,-36343.75767,30035.17896,2745.330661,22624.52514,18739.34492,-64050.66717,10604.31577,-56705.63808,-0.018,0.094,-0.992,192,0,0,0,0,0,0,0,0,0,0
 2023-06-24 15:08:59.719,-36187.51898,29565.50176,2254.57576,22188.71083,18246.57837,-63268.53493,10116.53365,-56248.88018,-0.018,0.094,-0.992,192,0,0,0,0,0,0,0,0,0,0
 2023-06-24 15:08:59.719,-36324.06578,28617.36311,1310.236908,21248.28354,17307.60393,-62588.66192,9177.536866,-55824.62172,-0.018,0.094,-0.992,192,0,0,0,0,0,0,0,0,0,0
 2023-06-24 15:08:59.719,-36549.90781,28545.81518,1257.307977,21151.96987,17264.2192,-62996.49185,9129.860595,-56050.66491,-0.018,0.094,-0.992,192,0,0,0,0,0,0,0,0,0,0
 2023-06-24 15:08:59.719,-36575.09823,29349.31568,2072.073766,21930.65994,18078.78382,-63881.93385,9942.01123,-56581.0271,-0.018,0.094,-0.992,192,0,0,0,0,0,0,0,0,0,0
 2023-06-24 15:08:59.719,-36354.75473,29997.06924,2709.94785,22587.46595,18708.58892,-64066.53691,10582.88045,-56712.03067,-0.018,0.094,-0.992,192,0,0,0,0,0,0,0,0,0,0
 2023-06-24 15:08:59.719,-36190.13413,29560.65143,2255.492181,22193.22588,18255.07203,-63291.28901,10133.40922,-56260.61484,-0.016,0.094,-0.99,192,255,128,2,240,225,16,0,0,0,0
 2023-06-24 15:08:59.719,-36314.96862,28643.11232,1341.462295,21282.57111,17344.93135,-62589.55599,9216.205384,-55822.58771,-0.016,0.094,-0.99,192,0,0,0,0,0,0,0,0,0,0
 2023-06-24 15:08:59.719,-36531.04294,28617.11724,1334.130923,21220.43326,17334.02369,-62971.61436,9208.225812,-56031.44241,-0.016,0.094,-0.99,192,0,0,0,0,0,0,0,0,0,0
 2023-06-24 15:08:59.719,-36561.37425,29409.73245,2133.719877,21986.5393,18134.55142,-63860.7444,10004.81963,-56564.24094,-0.016,0.094,-0.99,192,0,0,0,0,0,0,0,0,0,0
 2023-06-24 15:08:59.719,-36353.36892,29990.40842,2708.338524,22582.258,18702.39749,-64074.62824,10568.55298,-56713.72941,-0.016,0.094,-0.99,192,0,0,0,0,0,0,0,0,0,0
 2023-06-24 15:08:59.719,-36201.24295,29476.60887,2179.026863,22108.8257,18172.21411,-63325.1519,10046.08095,-56280.41849,-0.016,0.094,-0.99,192,0,0,0,0,0,0,0,0,0,0
 2023-06-24 15:08:59.719,-36330.45838,28505.1797,1205.697799,21143.76678,17202.43897,-62613.02532,9068.348595,-55837.98806,-0.016,0.094,-0.99,192,0,0,0,0,0,0,0,0,0,0
 2023-06-24 15:08:59.719,-36540.67654,28517.04848,1238.711326,21115.11184,17230.24454,-62973.51426,9097.405862,-56032.78351,-0.016,0.094,-0.99,192,0,0,0,0,0,0,0,0,0,0
 2023-06-24 15:08:59.719,-36568.79503,29360.9833,2092.570316,21931.24109,18083.6565,-63857.5034,9955.489332,-56562.09517,-0.016,0.094,-0.99,192,0,0,0,0,0,0,0,0,0,0
 2023-06-24 15:08:59.719,-36360.56618,29967.49788,2688.736044,22557.89459,18676.313,-64087.39109,10556.05835,-56721.61957,-0.016,0.094,-0.99,192,0,0,0,0,0,0,0,0,0,0
 2023-06-24 15:08:59.719,-36195.90088,29508.34835,2215.460207,22148.32123,18203.52891,-63342.65332,10093.91369,-56291.95199,-0.012,0.092,-0.99,192,255,160,2,224,225,16,0,0,0,0
 2023-06-24 15:08:59.719,-36322.70233,28508.39836,1218.706515,21165.40327,17214.17364,-62614.58994,9101.496232,-55839.66444,-0.012,0.092,-0.99,192,0,0,0,0,0,0,0,0,0,0
 2023-06-24 15:08:59.719,-36540.49773,28459.42568,1184.68716,21069.7378,17182.43416,-62963.38892,9059.899635,-56027.62026,-0.012,0.092,-0.99,192,0,0,0,0,0,0,0,0,0,0
 2023-06-24 15:08:59.719,-36574.40532,29313.37408,2044.715231,21886.82817,18041.4117,-63849.12149,9916.239669,-56557.82599,-0.012,0.092,-0.99,192,0,0,0,0,0,0,0,0,0,0
 2023-06-24 15:08:59.719,-36365.03653,29998.85738,2715.647544,22589.54466,18708.36541,-64093.47076,10568.93296,-56726.20168,-0.012,0.092,-0.99,192,0,0,0,0,0,0,0,0,0,0
 2023-06-24 15:08:59.719,-36203.29931,29525.17921,2234.07921,22145.95194,18207.79809,-63364.33451,10087.007,-56308.73815,-0.012,0.092,-0.99,192,0,0,0,0,0,0,0,0,0,0
 2023-06-24 15:08:59.719,-36333.2747,28461.01266,1171.030244,21084.57936,17140.07761,-62622.88244,9031.401161,-55849.81213,-0.012,0.092,-0.99,192,0,0,0,0,0,0,0,0,0,0
 2023-06-24 15:08:59.719,-36554.08759,28394.96325,1121.476426,20993.02661,17099.82212,-62953.37533,8980.506239,-56025.98858,-0.012,0.092,-0.99,192,0,0,0,0,0,0,0,0,0,0
 2023-06-24 15:08:59.719,-36597.897,29204.0964,1938.589148,21778.44456,17917.18071,-63850.82023,9792.053377,-56561.06699,-0.012,0.092,-0.99,192,0,0,0,0,0,0,0,0,0,0
 2023-06-24 15:08:59.719,-36393.89263,29885.26581,2607.174529,22472.89091,18584.93907,-64120.31521,10468.8642,-56742.56316,-0.012,0.092,-0.99,192,0,0,0,0,0,0,0,0,0,0
 2023-06-24 15:08:59.719,-36218.31968,29505.48732,2204.284335,22130.6857,18185.5134,-63395.38108,10073.5736,-56325.94899,-0.012,0.092,-0.99,192,0,0,0,0,0,0,0,0,0,0
 2023-06-24 15:08:59.719,-36335.28636,28476.3236,1171.812555,21120.07393,17162.54111,-62631.35375,9053.618795,-55853.12019,-0.014,0.092,-0.99,192,255,144,2,224,225,16,0,0,0,0
 2023-06-24 15:08:59.719,-36558.1109,28375.1149,1091.41333,20979.3697,17081.7172,-62949.01674,8963.451858,-56021.29472,-0.014,0.092,-0.99,192,0,0,0,0,0,0,0,0,0,0
 2023-06-24 15:08:59.719,-36601.42858,29231.67845,1964.226599,21791.92266,17943.06403,-63842.1701,9825.6704,-56553.4227,-0.014,0.092,-0.99,192,0,0,0,0,0,0,0,0,0,0
 2023-06-24 15:08:59.719,-36395.03257,29953.25982,2674.7215,22531.13956,18658.43161,-64126.90897,10548.19054,-56746.56412,-0.014,0.092,-0.99,192,0,0,0,0,0,0,0,0,0,0
 2023-06-24 15:08:59.719,-36217.73854,29540.22193,2241.969376,22167.52138,18227.71349,-63415.31884,10115.12549,-56342.0199,-0.014,0.092,-0.99,192,0,0,0,0,0,0,0,0,0,0
 2023-06-24 15:08:59.719,-36329.31844,28495.88138,1200.020456,21134.80373,17187.68682,-62629.90089,9088.621627,-55857.27761,-0.014,0.092,-0.99,192,0,0,0,0,0,0,0,0,0,0
 2023-06-24 15:08:59.719,-36540.833,28477.95528,1203.037942,21078.6785,17188.0668,-62916.71847,9086.520563,-56005.11205,-0.014,0.092,-0.99,192,0,0,0,0,0,0,0,0,0,0
 2023-06-24 15:08:59.719,-36587.50344,29354.88127,2095.543098,21924.62497,18073.62057,-63810.96707,9955.377573,-56537.73177,-0.014,0.092,-0.99,192,0,0,0,0,0,0,0,0,0,0
 2023-06-24 15:08:59.719,-36386.15893,30081.40237,2810.15072,22668.04399,18792.2068,-64117.34243,10672.28743,-56745.67005,-0.014,0.092,-0.99,192,0,0,0,0,0,0,0,0,0,0
 2023-06-24 15:08:59.719,-36215.3469,29592.83794,2298.698103,22233.01199,18290.63365,-63426.24884,10161.9524,-56357.80023,-0.014,0.092,-0.99,192,0,0,0,0,0,0,0,0,0,0
 2023-06-24 15:08:59.719,-36328.1785,28496.23901,1213.476206,21146.18077,17196.62752,-62628.89506,9081.245551,-55864.96661,-0.022,0.094,-0.992,192,255,80,2,240,225,0,0,0,0,0
 2023-06-24 15:08:59.719,-36536.63087,28502.98923,1237.526684,21103.82421,17223.65078,-62896.11016,9124.607936,-55996.48428,-0.022,0.094,-0.992,192,0,0,0,0,0,0,0,0,0,0
 2023-06-24 15:08:59.719,-36597.2041,29308.47905,2056.762821,21874.22179,18031.39812,-63803.18866,9929.158977,-56536.12245,-0.022,0.094,-0.992,192,0,0,0,0,0,0,0,0,0,0
 2023-06-24 15:08:59.719,-36408.1754,29986.3404,2722.956565,22573.89844,18702.68806,-64138.1966,10583.52865,-56762.29975,-0.022,0.094,-0.992,192,0,0,0,0,0,0,0,0,0,0
 2023-06-24 15:08:59.719,-36213.447,29676.05349,2389.446186,22312.5395,18378.56542,-63438.85522,10256.29911,-56364.75162,-0.022,0.094,-0.992,192,0,0,0,0,0,0,0,0,0,0
 2023-06-24 15:08:59.719,-36310.7665,28627.82373,1338.511865,21277.16199,17330.3133,-62613.56176,9221.234527,-55853.79074,-0.022,0.094,-0.992,192,0,0,0,0,0,0,0,0,0,0
 2023-06-24 15:08:59.719,-36541.68237,28470.89213,1198.657,21079.72903,17190.68196,-62882.54266,9087.168764,-55992.77389,-0.022,0.094,-0.992,192,0,0,0,0,0,0,0,0,0,0
 2023-06-24 15:08:59.719,-36606.03304,29306.17682,2039.082591,21892.43846,18038.05894,-63791.87868,9917.804291,-56535.20602,-0.022,0.094,-0.992,192,0,0,0,0,0,0,0,0,0,0
 2023-06-24 15:08:59.720,-36408.33186,30077.08848,2798.684275,22677.0741,18797.16889,-64134.86619,10675.79665,-56764.9149,-0.022,0.094,-0.992,192,0,0,0,0,0,0,0,0,0,0
 2023-06-24 15:08:59.720,-36211.86003,29730.63645,2431.512169,22372.8445,18432.54488,-63450.61224,10324.18136,-56378.40854,-0.022,0.094,-0.992,192,0,0,0,0,0,0,0,0,0,0
 2023-06-24 15:08:59.720,-36302.45165,28646.55449,1345.865589,21306.64394,17349.06642,-62611.59481,9231.181053,-55860.85389,-0.024,0.092,-0.988,192,255,64,2,224,225,32,0,0,0,0
 2023-06-24 15:08:59.720,-36536.31795,28453.2566,1171.432575,21077.78443,17172.75586,-62864.66126,9055.496342,-55990.15874,-0.024,0.092,-0.988,192,0,0,0,0,0,0,0,0,0,0
 2023-06-24 15:08:59.720,-36605.38484,29302.08645,2035.86394,21876.18874,18024.42438,-63775.18192,9905.980218,-56530.4451,-0.024,0.092,-0.988,192,0,0,0,0,0,0,0,0,0,0
 2023-06-24 15:08:59.720,-36419.35127,30023.82428,2746.872931,22598.55242,18728.39257,-64146.91378,10614.97755,-56778.57182,-0.024,0.092,-0.988,192,0,0,0,0,0,0,0,0,0,0
 2023-06-24 15:08:59.720,-36216.73271,29724.69088,2422.727933,22335.11476,18407.37681,-63474.72977,10309.13863,-56399.53094,-0.024,0.092,-0.988,192,0,0,0,0,0,0,0,0,0,0
 2023-06-24 15:08:59.720,-36304.64212,28626.8626,1318.350591,21263.99681,17315.76232,-62620.06612,9221.234527,-55871.53803,-0.024,0.092,-0.988,192,0,0,0,0,0,0,0,0,0,0
 2023-06-24 15:08:59.720,-36534.03807,28471.98736,1182.854317,21085.42872,17184.7811,-62849.73029,9076.775202,-55982.15681,-0.024,0.092,-0.988,192,0,0,0,0,0,0,0,0,0,0
 2023-06-24 15:08:59.720,-36606.1448,29337.62572,2062.864848,21913.94084,18056.87911,-63759.11102,9935.082189,-56520.1633,-0.024,0.092,-0.988,192,0,0,0,0,0,0,0,0,0,0
 2023-06-24 15:08:59.720,-36413.67393,30137.14762,2852.909607,22718.46953,18839.97248,-64141.03528,10714.77809,-56772.91683,-0.024,0.092,-0.988,192,0,0,0,0,0,0,0,0,0,0
 2023-06-24 15:08:59.720,-36216.50919,29782.09016,2475.209829,22404.36046,18469.3135,-63486.46444,10363.40867,-56408.11401,-0.024,0.092,-0.988,192,0,0,0,0,0,0,0,0,0,0
 2023-06-24 15:08:59.720,-36297.51191,28689.44749,1380.533145,21327.63223,17376.78258,-62614.14291,9288.625036,-55871.8286,-0.02,0.094,-0.99,192,255,96,2,240,225,16,0,0,0,0
 2023-06-24 15:08:59.720,-36533.23341,28473.37317,1182.720206,21084.24408,17180.06488,-62830.35133,9081.469069,-55978.15585,-0.02,0.094,-0.99,192,0,0,0,0,0,0,0,0,0,0
 2023-06-24 15:08:59.720,-36615.28666,29299.42659,2030.47717,21864.94581,18014.43315,-63744.67179,9912.506928,-56521.07972,-0.02,0.094,-0.99,192,0,0,0,0,0,0,0,0,0,0
 2023-06-24 15:08:59.720,-36438.3279,30035.80481,2758.451135,22623.40756,18749.20204,-64157.68733,10641.12909,-56795.78266,-0.02,0.094,-0.99,192,0,0,0,0,0,0,0,0,0,0
 2023-06-24 15:08:59.720,-36232.80361,29720.17583,2419.48693,22367.7483,18416.67514,-63514.20295,10296.62166,-56436.94776,-0.02,0.094,-0.99,192,0,0,0,0,0,0,0,0,0,0
 2023-06-24 15:08:59.720,-36298.18246,28660.03259,1357.309682,21322.46897,17352.55329,-62621.6978,9240.859358,-55886.5584,-0.02,0.094,-0.99,192,0,0,0,0,0,0,0,0,0,0
 2023-06-24 15:08:59.720,-36529.43361,28439.48793,1155.786354,21061.60177,17146.87254,-62816.82853,9039.783065,-55979.18403,-0.02,0.094,-0.99,192,0,0,0,0,0,0,0,0,0,0
 2023-06-24 15:08:59.720,-36616.11368,29259.864,1987.472413,21842.75053,17977.19514,-63732.60185,9861.567302,-56522.46553,-0.02,0.094,-0.99,192,0,0,0,0,0,0,0,0,0,0
 2023-06-24 15:08:59.720,-36431.26475,30107.68802,2825.9087,22696.14013,18817.68779,-64153.32874,10704.65275,-56797.83902,-0.02,0.094,-0.99,192,0,0,0,0,0,0,0,0,0,0
 2023-06-24 15:08:59.720,-36221.87361,29821.83156,2521.947327,22450.78503,18509.30077,-63519.2321,10394.09761,-56443.2733,-0.02,0.094,-0.99,192,0,0,0,0,0,0,0,0,0,0
 2023-06-24 15:08:59.720,-36297.31075,28654.57876,1351.498228,21307.18038,17342.4056,-62623.41888,9225.615469,-55893.10746,-0.018,0.096,-0.992,192,255,112,3,0,225,0,0,0,0,0
 2023-06-24 15:08:59.720,-36535.24507,28410.2742,1128.159598,21021.56979,17119.82693,-62806.14439,9005.383731,-55978.28996,-0.018,0.096,-0.992,192,0,0,0,0,0,0,0,0,0,0
 2023-06-24 15:08:59.720,-36639.22538,29158.92353,1887.068377,21735.97625,17880.65796,-63733.11594,9770.975682,-56529.66279,-0.018,0.096,-0.992,192,0,0,0,0,0,0,0,0,0,0
 2023-06-24 15:08:59.720,-36469.37447,29942.7545,2661.757488,22538.64974,18658.36455,-64183.50359,10540.52389,-56825.7787,-0.018,0.096,-0.992,192,0,0,0,0,0,0,0,0,0,0
 2023-06-24 15:08:59.720,-36249.41096,29709.69286,2407.193471,22349.71045,18407.37681,-63555.66544,10290.1173,-56473.91754,-0.018,0.096,-0.992,192,0,0,0,0,0,0,0,0,0,0
 2023-06-24 15:08:59.720,-36301.84815,28633.18814,1324.273804,21294.03756,17324.94889,-62629.83383,9214.037265,-55902.5846,-0.018,0.096,-0.992,192,0,0,0,0,0,0,0,0,0,0
 2023-06-24 15:09:00.198,-36537.74846,28396.61728,1110.166444,21012.94202,17103.30899,-62790.52052,8992.442071,-55975.6301,-0.018,0.096,-0.992,192,0,0,0,0,0,0,0,0,0,0
 2023-06-24 15:09:00.198,-36641.3935,29188.89721,1916.907956,21760.83139,17908.03884,-63713.53581,9800.234115,-56522.62199,-0.018,0.096,-0.992,192,0,0,0,0,0,0,0,0,0,0
 2023-06-24 15:09:00.198,-36464.79237,30062.96218,2780.266438,22642.16067,18775.24183,-64176.10516,10673.2709,-56823.02944,-0.018,0.096,-0.992,192,0,0,0,0,0,0,0,0,0,0
 2023-06-24 15:09:00.198,-36247.73458,29800.39624,2492.666542,22437.91043,18498.95191,-63567.51186,10377.49027,-56484.37816,-0.018,0.096,-0.992,192,0,0,0,0,0,0,0,0,0,0
 2023-06-24 15:09:00.198,-36306.60907,28605.6508,1291.93083,21270.14354,17305.45816,-62637.83576,9189.562105,-55914.20751,-0.02,0.092,-0.99,192,255,96,2,224,225,16,0,0,0,0
 2023-06-24 15:09:00.198,-36545.30335,28323.41532,1031.175379,20946.28912,17041.14879,-62784.91024,8928.940765,-55978.46877,-0.02,0.092,-0.99,192,0,0,0,0,0,0,0,0,0,0
 2023-06-24 15:09:00.198,-36642.55579,29181.40938,1906.357933,21754.59525,17904.03788,-63702.00231,9795.227324,-56518.73279,-0.02,0.092,-0.99,192,0,0,0,0,0,0,0,0,0,0
 2023-06-24 15:09:00.198,-36469.15096,30043.82909,2761.245103,22617.12672,18751.88425,-64185.64936,10647.14171,-56833.08772,-0.02,0.092,-0.99,192,0,0,0,0,0,0,0,0,0,0
 2023-06-24 15:09:00.198,-36244.94061,29820.334,2516.851129,22436.92695,18508.18318,-63589.14835,10402.47952,-56502.61718,-0.02,0.092,-0.99,192,0,0,0,0,0,0,0,0,0,0
 2023-06-24 15:09:00.198,-36287.87831,28699.46107,1388.9374,21353.80612,17391.53473,-62636.56171,9281.316016,-55919.14724,-0.02,0.092,-0.99,192,0,0,0,0,0,0,0,0,0,0
 2023-06-24 15:09:00.198,-36530.10416,28394.11389,1105.696095,21019.78165,17109.25455,-62764.25722,8995.995998,-55974.22194,-0.02,0.092,-0.99,192,0,0,0,0,0,0,0,0,0,0
 2023-06-24 15:09:00.198,-36645.99796,29169.76412,1895.249116,21749.32024,17892.10205,-63688.63597,9775.669548,-56522.01849,-0.02,0.092,-0.99,192,0,0,0,0,0,0,0,0,0,0
 2023-06-24 15:09:00.198,-36482.98669,30012.40254,2730.086771,22592.09276,18726.78324,-64195.41707,10609.52373,-56849.89623,-0.02,0.092,-0.99,192,0,0,0,0,0,0,0,0,0,0
 2023-06-24 15:09:00.198,-36258.21754,29791.94728,2488.352655,22423.58296,18492.17933,-63615.76928,10377.40086,-56529.104,-0.02,0.092,-0.99,192,0,0,0,0,0,0,0,0,0,0
 2023-06-24 15:09:00.198,-36292.46042,28659.04911,1351.811153,21317.61865,17357.71654,-62652.02912,9247.900158,-55937.36392,-0.018,0.092,-0.988,192,255,112,2,224,225,32,0,0,0,0
 2023-06-24 15:09:00.198,-36525.92439,28394.04683,1102.075112,21006.34825,17104.91831,-62752.72372,9003.483832,-55972.92554,-0.018,0.092,-0.988,192,0,0,0,0,0,0,0,0,0,0
 2023-06-24 15:09:00.198,-36644.83567,29170.99347,1892.879831,21747.5768,17894.13606,-63674.21909,9788.879429,-56517.41404,-0.018,0.092,-0.988,192,0,0,0,0,0,0,0,0,0,0
 2023-06-24 15:09:00.198,-36484.57366,30037.23532,2753.377289,22623.85459,18755.7064,-64197.24991,10636.74815,-56855.61828,-0.018,0.092,-0.988,192,0,0,0,0,0,0,0,0,0,0
 2023-06-24 15:09:00.198,-36261.59266,29802.51966,2497.874498,22435.80937,18497.20848,-63636.33289,10368.28135,-56549.64525,-0.018,0.092,-0.988,192,0,0,0,0,0,0,0,0,0,0
 2023-06-24 15:09:00.198,-36297.82484,28609.36118,1298.681056,21264.22033,17297.88092,-62670.13403,9181.090794,-55959.46979,-0.018,0.092,-0.988,192,0,0,0,0,0,0,0,0,0,0
 2023-06-24 15:09:00.198,-36534.3957,28303.38815,1010.321201,20912.78385,17008.22467,-62756.12119,8898.00595,-55986.78362,-0.018,0.092,-0.988,192,0,0,0,0,0,0,0,0,0,0
 2023-06-24 15:09:00.198,-36659.61017,29065.87321,1784.406815,21639.12614,17787.85351,-63678.37652,9670.37048,-56530.24394,-0.018,0.092,-0.988,192,0,0,0,0,0,0,0,0,0,0
 2023-06-24 15:09:00.198,-36493.4473,29996.89043,2710.886623,22576.33478,18711.517,-64212.20323,10591.57528,-56871.868,-0.018,0.092,-0.988,192,0,0,0,0,0,0,0,0,0,0
 2023-06-24 15:09:00.198,-36255.24476,29861.55061,2555.720813,22471.05807,18549.53391,-63654.61661,10446.95949,-56563.86096,-0.018,0.092,-0.988,192,0,0,0,0,0,0,0,0,0,0
 2023-06-24 15:09:00.198,-36278.46822,28688.70988,1369.245514,21336.52822,17376.38025,-62670.15638,9264.283987,-55963.4931,-0.02,0.094,-0.988,192,255,96,2,240,225,32,0,0,0,0
 2023-06-24 15:09:00.198,-36517.45308,28349.90214,1048.654443,20973.44649,17060.32658,-62735.95992,8934.618108,-55979.92164,-0.02,0.094,-0.988,192,0,0,0,0,0,0,0,0,0,0
 2023-06-24 15:09:00.198,-36639.02421,29188.15961,1908.458997,21749.29789,17901.0204,-63645.96649,9776.474211,-56514.84358,-0.02,0.094,-0.988,192,0,0,0,0,0,0,0,0,0,0
 2023-06-24 15:09:00.198,-36479.61157,30111.62193,2824.455836,22683.64551,18820.14648,-64199.37333,10696.04733,-56870.03516,-0.02,0.094,-0.988,192,0,0,0,0,0,0,0,0,0,0
 2023-06-24 15:09:00.199,-36247.3546,29925.02957,2614.461197,22557.44756,18621.95356,-63663.62437,10490.65715,-56577.94256,-0.02,0.094,-0.988,192,0,0,0,0,0,0,0,0,0,0
 2023-06-24 15:09:00.199,-36266.97943,28734.59801,1415.893604,21399.13546,17429.06331,-62673.84442,9295.710539,-55973.7302,-0.02,0.094,-0.988,192,0,0,0,0,0,0,0,0,0,0
 2023-06-24 15:09:00.199,-36502.23154,28388.70476,1092.173289,21008.1811,17094.68121,-62716.5139,8969.37507,-55974.44546,-0.02,0.094,-0.988,192,0,0,0,0,0,0,0,0,0,0
 2023-06-24 15:09:00.199,-36639.58301,29141.15389,1863.084956,21714.02683,17861.3684,-63630.29791,9737.51512,-56511.11084,-0.02,0.094,-0.988,192,0,0,0,0,0,0,0,0,0,0
 2023-06-24 15:09:00.199,-36492.7097,30029.43457,2745.777696,22608.76716,18740.79779,-64206.79411,10606.55094,-56879.89228,-0.02,0.094,-0.988,192,0,0,0,0,0,0,0,0,0,0
 2023-06-24 15:09:00.199,-36252.69666,29941.18988,2636.678831,22565.74006,18632.7271,-63679.22588,10511.86896,-56589.27489,-0.02,0.094,-0.988,192,0,0,0,0,0,0,0,0,0,0
 2023-06-24 15:09:00.199,-36262.48673,28794.92537,1479.998407,21450.65623,17483.37805,-62675.5655,9373.11463,-55976.47947,-0.016,0.094,-0.994,192,255,128,2,240,224,240,0,0,0,0
 2023-06-24 15:09:00.199,-36512.06631,28343.95657,1049.324995,20971.54659,17053.73282,-62709.13782,8944.497579,-55975.83127,-0.016,0.094,-0.994,192,0,0,0,0,0,0,0,0,0,0
 2023-06-24 15:09:00.199,-36652.12234,29098.03737,1820.86251,21685.39425,17825.38209,-63618.02681,9709.173108,-56511.2226,-0.016,0.094,-0.994,192,0,0,0,0,0,0,0,0,0,0
 2023-06-24 15:09:00.199,-36504.95845,30040.09635,2755.366594,22627.87791,18760.78025,-64208.98458,10647.67815,-56888.05066,-0.016,0.094,-0.994,192,0,0,0,0,0,0,0,0,0,0
 2023-06-24 15:09:00.199,-36263.62667,29950.95759,2645.798343,22593.21035,18654.96709,-63699.43186,10533.12546,-56608.98913,-0.016,0.094,-0.994,192,0,0,0,0,0,0,0,0,0,0
 2023-06-24 15:09:00.199,-36267.09119,28796.51234,1479.640779,21464.67077,17490.70942,-62690.67528,9371.505305,-55991.63395,-0.016,0.094,-0.994,192,0,0,0,0,0,0,0,0,0,0
 2023-06-24 15:09:00.199,-36508.1324,28368.90112,1071.788498,20990.83614,17078.11857,-62697.62667,8966.759916,-55974.42311,-0.016,0.094,-0.994,192,0,0,0,0,0,0,0,0,0,0
 2023-06-24 15:09:00.199,-36654.11164,29105.4358,1824.103513,21676.07357,17827.28199,-63601.73239,9706.647361,-56509.09919,-0.016,0.094,-0.994,192,0,0,0,0,0,0,0,0,0,0
 2023-06-24 15:09:00.199,-36501.94097,30104.98346,2821.460703,22676.93999,18817.48662,-64201.16147,10672.98033,-56890.97874,-0.016,0.094,-0.994,192,0,0,0,0,0,0,0,0,0,0
 2023-06-24 15:09:00.199,-36262.01734,29989.40259,2684.086881,22609.32596,18682.39268,-63710.67479,10543.1614,-56626.28938,-0.016,0.094,-0.994,192,0,0,0,0,0,0,0,0,0,0
 2023-06-24 15:09:00.199,-36268.43229,28777.24514,1461.871143,21428.41624,17463.12737,-62703.48283,9337.016563,-56014.81271,-0.022,0.096,-0.992,192,255,80,3,0,225,0,0,0,0,0
 2023-06-24 15:09:00.199,-36508.93706,28332.33366,1036.092762,20946.69145,17037.99719,-62692.53048,8916.826119,-55987.85651,-0.022,0.096,-0.992,192,0,0,0,0,0,0,0,0,0,0
 2023-06-24 15:09:00.199,-36656.59269,29070.29886,1790.330027,21645.38463,17791.72037,-63589.43893,9667.822381,-56513.18956,-0.022,0.096,-0.992,192,0,0,0,0,0,0,0,0,0,0
 2023-06-24 15:09:00.199,-36517.31897,30022.1479,2735.182969,22591.82454,18729.28664,-64210.34804,10608.65201,-56906.80378,-0.022,0.096,-0.992,192,0,0,0,0,0,0,0,0,0,0
 2023-06-24 15:09:00.199,-36283.16209,29905.69531,2595.082235,22527.25035,18595.13147,-63740.9614,10475.43561,-56653.98319,-0.022,0.096,-0.992,192,0,0,0,0,0,0,0,0,0,0
 2023-06-24 15:09:00.199,-36275.22722,28778.34037,1457.35609,21437.62516,17465.3849,-62720.76073,9338.357668,-56032.89527,-0.022,0.096,-0.992,192,0,0,0,0,0,0,0,0,0,0
 2023-06-24 15:09:00.199,-36501.53863,28404.46274,1101.896298,21018.37349,17100.55972,-62678.18066,8978.494582,-55986.18013,-0.022,0.096,-0.992,192,0,0,0,0,0,0,0,0,0,0
 2023-06-24 15:09:00.199,-36653.26228,29102.61948,1818.80615,21675.20185,17816.35199,-63567.62362,9687.648378,-56511.7814,-0.022,0.096,-0.992,192,0,0,0,0,0,0,0,0,0,0
 2023-06-24 15:09:00.199,-36517.7213,30056.45782,2764.173182,22628.92844,18762.83661,-64206.41413,10637.19519,-56916.83971,-0.022,0.096,-0.992,192,0,0,0,0,0,0,0,0,0,0
 2023-06-24 15:09:00.199,-36277.17182,29982.89823,2668.865343,22601.65931,18672.26734,-63751.44437,10551.61036,-56670.54584,-0.022,0.096,-0.992,192,0,0,0,0,0,0,0,0,0,0
 2023-06-24 15:09:00.199,-36258.12814,28865.55688,1544.147914,21522.53944,17549.71803,-62721.54304,9426.110616,-56043.02061,-0.018,0.096,-0.984,192,255,112,3,0,225,64,0,0,0,0
 2023-06-24 15:09:00.199,-36486.54061,28423.1041,1119.621232,21044.21211,17123.04558,-62659.40519,9014.324428,-55986.44835,-0.018,0.096,-0.984,192,0,0,0,0,0,0,0,0,0,0
 2023-06-24 15:09:00.199,-36647.87551,29081.7206,1798.086083,21659.37682,17800.68342,-63546.72474,9684.809707,-56509.36741,-0.018,0.096,-0.984,192,0,0,0,0,0,0,0,0,0,0
 2023-06-24 15:09:00.199,-36520.49291,30032.76498,2751.477391,22614.86919,18751.03489,-64204.96126,10623.67238,-56924.3946,-0.018,0.096,-0.984,192,0,0,0,0,0,0,0,0,0,0
 2023-06-24 15:09:00.199,-36278.02119,30006.23345,2706.550384,22633.93523,18704.00682,-63767.11294,10567.32363,-56687.60022,-0.018,0.096,-0.984,192,0,0,0,0,0,0,0,0,0,0
 2023-06-24 15:09:00.199,-36262.71024,28829.45881,1515.917661,21491.91755,17514.93871,-62740.02793,9375.528619,-56065.9535,-0.018,0.096,-0.984,192,0,0,0,0,0,0,0,0,0,0
 2023-06-24 15:09:00.199,-36496.44244,28334.16651,1039.26671,20962.0918,17041.88639,-62662.7356,8917.697837,-56000.35113,-0.018,0.096,-0.984,192,0,0,0,0,0,0,0,0,0,0
 2023-06-24 15:09:00.199,-36660.81717,29015.42533,1738.205759,21597.77541,17733.58348,-63540.24274,9608.724369,-56514.08363,-0.018,0.096,-0.984,192,0,0,0,0,0,0,0,0,0,0
 2023-06-24 15:09:00.199,-36541.4365,29935.28902,2657.555361,22509.01133,18641.26547,-64217.52295,10520.63084,-56941.24781,-0.018,0.096,-0.984,192,0,0,0,0,0,0,0,0,0,0
 2023-06-24 15:09:00.199,-36295.23203,29932.29388,2635.225968,22543.41066,18621.43947,-63795.47731,10510.23728,-56714.48937,-0.018,0.096,-0.984,192,0,0,0,0,0,0,0,0,0,0
 2023-06-24 15:09:00.199,-36274.19904,28762.6271,1451.209361,21427.03044,17455.28191,-62765.08424,9331.875662,-56089.55694,-0.02,0.098,-0.988,192,255,96,3,16,225,32,0,0,0,0
 2023-06-24 15:09:00.199,-36508.7806,28244.91599,951.1561336,20882.40783,16957.08388,-62668.61411,8838.125627,-56012.8234,-0.02,0.098,-0.988,192,0,0,0,0,0,0,0,0,0,0
 2023-06-24 15:09:00.199,-36679.52558,28892.0437,1617.752208,21473.38795,17617.33206,-63540.86859,9513.394179,-56523.3596,-0.02,0.098,-0.988,192,0,0,0,0,0,0,0,0,0,0
 2023-06-24 15:09:00.199,-36555.76397,29899.68269,2621.747866,22476.10956,18617.17029,-64228.20708,10500.80484,-56953.56363,-0.02,0.098,-0.988,192,0,0,0,0,0,0,0,0,0,0
 2023-06-24 15:09:00.199,-36300.93173,29961.86524,2663.255055,22585.99074,18660.62208,-63817.24791,10528.76687,-56733.71187,-0.02,0.098,-0.988,192,0,0,0,0,0,0,0,0,0,0
 2023-06-24 15:09:00.199,-36266.6218,28831.42577,1518.689277,21499.0254,17520.77252,-62778.33882,9383.463488,-56104.66672,-0.02,0.098,-0.988,192,0,0,0,0,0,0,0,0,0,0
 2023-06-24 15:09:00.199,-36493.67082,28291.25116,998.4077213,20922.26099,16997.80875,-62658.95816,8869.239255,-56014.94682,-0.02,0.098,-0.988,192,0,0,0,0,0,0,0,0,0,0
 2023-06-24 15:09:00.199,-36662.09121,28948.61596,1672.983369,21531.99423,17673.34553,-63517.26514,9556.555397,-56516.72113,-0.02,0.098,-0.988,192,0,0,0,0,0,0,0,0,0,0
 2023-06-24 15:09:00.199,-36540.05069,29991.92834,2714.909937,22574.18902,18715.87559,-64213.43258,10586.68024,-56949.58501,-0.02,0.098,-0.988,192,0,0,0,0,0,0,0,0,0,0
 2023-06-24 15:09:00.199,-36289.26412,30042.37623,2746.336489,22666.97111,18743.23413,-63824.86985,10609.88135,-56741.60203,-0.02,0.098,-0.988,192,0,0,0,0,0,0,0,0,0,0
 2023-06-24 15:09:00.199,-36257.6364,28874.83285,1559.436507,21540.53259,17564.7384,-62791.12402,9434.470169,-56116.98253,-0.018,0.098,-0.992,192,255,112,3,16,225,0,0,0,0,0
 2023-06-24 15:09:00.199,-36482.15967,28346.72819,1052.945978,20978.0733,17051.16237,-62649.72689,8929.991297,-56012.89046,-0.018,0.098,-0.992,192,0,0,0,0,0,0,0,0,0,0
 2023-06-24 15:09:00.200,-36659.29725,28970.99006,1697.436177,21556.24587,17693.99854,-63502.26712,9570.994624,-56511.26731,-0.018,0.098,-0.992,192,0,0,0,0,0,0,0,0,0,0
 2023-06-24 15:09:00.200,-36548.70082,29988.8438,2711.311306,22572.17736,18707.20311,-64218.1935,10579.97472,-56957.60929,-0.018,0.098,-0.992,192,0,0,0,0,0,0,0,0,0,0
 2023-06-24 15:09:00.200,-36292.34866,30076.93202,2777.852449,22698.66588,18769.89976,-63842.50538,10648.05813,-56757.49412,-0.018,0.098,-0.992,192,0,0,0,0,0,0,0,0,0,0
 2023-06-24 15:09:00.200,-36247.91339,28949.48768,1636.684136,21603.69862,17632.84417,-62798.32128,9504.967571,-56126.48202,-0.018,0.098,-0.992,192,0,0,0,0,0,0,0,0,0,0
 2023-06-24 15:09:00.200,-36476.05765,28374.28789,1078.382263,20993.25013,17072.55299,-62639.33332,8948.677355,-56013.13633,-0.018,0.098,-0.992,192,0,0,0,0,0,0,0,0,0,0
 2023-06-24 15:09:00.200,-36657.93379,28994.86172,1714.021172,21569.61221,17706.00143,-63484.69865,9585.16563,-56507.3781,-0.018,0.098,-0.992,192,0,0,0,0,0,0,0,0,0,0
 2023-06-24 15:09:00.200,-36558.7591,29973.08582,2690.0995,22544.48355,18681.4092,-64220.87571,10548.81639,-56968.53929,-0.018,0.098,-0.992,192,0,0,0,0,0,0,0,0,0,0
 2023-06-24 15:09:00.200,-36308.03958,30042.17506,2743.095487,22650.9002,18735.58983,-63867.58403,10617.21273,-56784.65149,-0.018,0.098,-0.992,192,0,0,0,0,0,0,0,0,0,0
 2023-06-24 15:09:00.200,-36252.09317,28964.19513,1651.995081,21615.36623,17649.07153,-62816.73912,9532.862548,-56149.2361,-0.018,0.096,-0.992,192,255,112,3,0,225,0,0,0,0,0
 2023-06-24 15:09:00.200,-36471.18497,28400.75235,1106.567813,21035.96431,17106.21471,-62629.65502,8971.632596,-56018.16547,-0.018,0.096,-0.992,192,0,0,0,0,0,0,0,0,0,0
 2023-06-24 15:09:00.200,-36665.37692,28916.80943,1637.131171,21504.36747,17634.92288,-63472.4499,9502.352417,-56511.7814,-0.018,0.096,-0.992,192,0,0,0,0,0,0,0,0,0,0
 2023-06-24 15:09:00.200,-36569.28677,29914.79247,2634.063677,22484.26795,18621.1936,-64222.28387,10490.54539,-56979.20108,-0.018,0.096,-0.992,192,0,0,0,0,0,0,0,0,0,0
 2023-06-24 15:09:00.200,-36320.71302,29991.16838,2691.954695,22613.19281,18684.29258,-63892.77445,10556.84066,-56809.95367,-0.018,0.096,-0.992,192,0,0,0,0,0,0,0,0,0,0
 2023-06-24 15:09:00.200,-36269.32636,28849.44127,1536.570673,21520.57249,17537.69279,-62851.92077,9408.877421,-56184.30599,-0.018,0.096,-0.992,192,0,0,0,0,0,0,0,0,0,0
 2023-06-24 15:09:00.200,-36494.11786,28220.17261,921.2718512,20859.34083,16923.04217,-62654.28664,8787.543629,-56047.26744,-0.018,0.096,-0.992,192,0,0,0,0,0,0,0,0,0,0
 2023-06-24 15:09:00.200,-36676.15046,28842.57929,1565.382071,21422.15776,17554.79187,-63475.55679,9429.128102,-56521.92909,-0.018,0.096,-0.992,192,0,0,0,0,0,0,0,0,0,0
 2023-06-24 15:09:00.200,-36577.9816,29896.30758,2617.18811,22466.72183,18604.11687,-64231.76101,10482.78934,-56989.7064,-0.018,0.096,-0.992,192,0,0,0,0,0,0,0,0,0,0
 2023-06-24 15:09:00.200,-36323.08231,30024.11485,2725.057629,22638.09265,18711.36054,-63916.40024,10590.01065,-56827.99152,-0.018,0.096,-0.992,192,0,0,0,0,0,0,0,0,0,0
 2023-06-24 15:09:00.200,-36264.36427,28883.39357,1573.69692,21544.5112,17559.48574,-62875.16658,9440.840416,-56200.89098,-0.016,0.096,-0.994,192,255,128,3,0,224,240,0,0,0,0
 2023-06-24 15:09:00.200,-36478.35988,28293.7322,1000.598192,20927.17837,16985.24707,-62646.7094,8867.674633,-56041.83597,-0.016,0.096,-0.994,192,0,0,0,0,0,0,0,0,0,0
 2023-06-24 15:09:00.200,-36656.83855,28935.54019,1656.800706,21519.4102,17642.58953,-63450.88046,9528.749827,-56506.59579,-0.016,0.096,-0.994,192,0,0,0,0,0,0,0,0,0,0
 2023-06-24 15:09:00.200,-36562.11186,30011.32965,2727.38221,22588.60589,18714.55684,-64218.95346,10599.71131,-56981.10097,-0.016,0.096,-0.994,192,0,0,0,0,0,0,0,0,0,0
 2023-06-24 15:09:00.200,-36313.51576,30116.00287,2812.140025,22745.20221,18802.91328,-63929.23015,10682.52452,-56834.58529,-0.016,0.096,-0.994,192,0,0,0,0,0,0,0,0,0,0
 2023-06-24 15:09:00.200,-36257.65875,28936.12134,1616.612269,21601.46345,17607.49729,-62892.89151,9496.250391,-56214.32438,-0.016,0.096,-0.994,192,0,0,0,0,0,0,0,0,0,0
 2023-06-24 15:09:00.200,-36475.83413,28274.5544,978.8275932,20896.82471,16962.51535,-62644.56363,8874.715432,-56048.76501,-0.016,0.096,-0.994,192,0,0,0,0,0,0,0,0,0,0
 2023-06-24 15:09:00.200,-36661.08539,28861.08653,1586.660932,21449.6951,17573.34382,-63440.71042,9475.306806,-56511.62493,-0.016,0.096,-0.994,192,0,0,0,0,0,0,0,0,0,0
 2023-06-24 15:09:00.200,-36573.46655,29912.95962,2631.560282,22512.83348,18627.74266,-64223.46851,10508.80677,-56996.65779,-0.016,0.096,-0.994,192,0,0,0,0,0,0,0,0,0,0
 2023-06-24 15:09:00.200,-36321.76355,30071.70171,2769.738766,22713.12746,18769.40802,-63947.8715,10646.42646,-56858.34519,-0.016,0.096,-0.994,192,0,0,0,0,0,0,0,0,0,0
 2023-06-24 15:09:00.200,-36259.15632,28909.72393,1596.652162,21577.1671,17586.37489,-62913.47747,9472.088155,-56236.22909,-0.022,0.094,-0.994,192,255,80,2,240,224,240,0,0,0,0
 2023-06-24 15:09:00.200,-36473.08486,28248.58168,957.2805115,20878.29511,16944.05281,-62642.61903,8834.526996,-56053.90591,-0.022,0.094,-0.994,192,0,0,0,0,0,0,0,0,0,0
 2023-06-24 15:09:00.200,-36666.67332,28792.8243,1519.672754,21384.78564,17509.21667,-63432.12735,9385.072814,-56512.92133,-0.022,0.094,-0.994,192,0,0,0,0,0,0,0,0,0,0
 2023-06-24 15:09:00.200,-36588.50927,29841.16582,2564.683862,22422.55478,18551.52321,-64229.95052,10429.10045,-57005.50908,-0.022,0.094,-0.994,192,0,0,0,0,0,0,0,0,0,0
 2023-06-24 15:09:00.200,-36345.76933,29977.3997,2679.147146,22602.2181,18670.4792,-63981.57793,10545.77655,-56882.35097,-0.022,0.094,-0.994,192,0,0,0,0,0,0,0,0,0,0
 2023-06-24 15:09:00.200,-36264.25252,28911.28855,1596.272182,21574.75311,17587.58188,-62938.82435,9474.859771,-56252.36705,-0.022,0.094,-0.994,192,0,0,0,0,0,0,0,0,0,0
 2023-06-24 15:09:00.200,-36462.6913,28299.00721,1000.911117,20944.79155,16997.85346,-62633.81244,8880.348072,-56048.54149,-0.022,0.094,-0.994,192,0,0,0,0,0,0,0,0,0,0
 2023-06-24 15:09:00.200,-36659.47606,28813.18674,1534.246091,21415.29577,17531.32254,-63412.18959,9413.21366,-56500.40436,-0.022,0.094,-0.994,192,0,0,0,0,0,0,0,0,0,0
 2023-06-24 15:09:00.200,-36589.78332,29838.81889,2559.632368,22423.73942,18552.01495,-64225.25665,10435.04601,-57002.44689,-0.022,0.094,-0.994,192,0,0,0,0,0,0,0,0,0,0
 2023-06-24 15:09:00.200,-36344.31646,30005.18292,2706.729198,22637.66797,18703.60448,-63996.79947,10592.44699,-56891.87281,-0.022,0.094,-0.994,192,0,0,0,0,0,0,0,0,0,0
 2023-06-24 15:09:00.200,-36259.24572,28930.33224,1613.28186,21611.7229,17620.30484,-62958.96327,9502.754748,-56270.04728,-0.018,0.096,-0.992,192,255,112,3,0,225,0,0,0,0,0
 2023-06-24 15:09:00.200,-36464.05476,28244.17838,943.9365201,20892.98021,16943.47166,-62636.38289,8835.935156,-56058.93505,-0.018,0.096,-0.992,192,0,0,0,0,0,0,0,0,0,0
 2023-06-24 15:09:00.200,-36658.0232,28800.33449,1523.249033,21385.43384,17508.45671,-63396.49867,9414.487709,-56499.21972,-0.018,0.096,-0.992,192,0,0,0,0,0,0,0,0,0,0
 2023-06-24 15:09:00.200,-36585.20121,29878.0909,2601.340723,22457.57997,18588.47065,-64216.15949,10474.54154,-57003.05039,-0.018,0.096,-0.992,192,0,0,0,0,0,0,0,0,0,0
 2023-06-24 15:09:00.200,-36339.15321,30052.18864,2756.618292,22683.53375,18748.30797,-64004.73434,10625.30406,-56901.28289,-0.018,0.096,-0.992,192,0,0,0,0,0,0,0,0,0,0
 2023-06-24 15:09:00.200,-36253.56838,28935.6743,1623.764828,21612.99695,17617.55557,-62971.81552,9493.322312,-56282.89953,-0.018,0.096,-0.992,192,0,0,0,0,0,0,0,0,0,0
 2023-06-24 15:09:00.677,-36454.15294,28235.08122,939.8685026,20880.21736,16928.49599,-62627.21868,8805.045045,-56056.38695,-0.018,0.096,-0.992,192,0,0,0,0,0,0,0,0,0,0
 2023-06-24 15:09:00.677,-36660.12426,28717.61068,1441.776924,21311.44956,17424.23533,-63386.50744,9312.273182,-56494.86113,-0.018,0.096,-0.992,192,0,0,0,0,0,0,0,0,0,0
 2023-06-24 15:09:00.677,-36593.65017,29824.55848,2549.059993,22398.48195,18533.59712,-64217.99233,10428.02756,-57004.77147,-0.018,0.096,-0.992,192,0,0,0,0,0,0,0,0,0,0
 2023-06-24 15:09:00.677,-36342.79655,30059.89999,2763.502629,22673.60958,18754.25354,-64021.47579,10646.3594,-56911.98938,-0.018,0.096,-0.992,192,0,0,0,0,0,0,0,0,0,0
 2023-06-24 15:09:00.677,-36242.2584,29012.29608,1697.749102,21677.45938,17693.19388,-62985.71831,9573.989758,-56293.22604,-0.02,0.102,-0.984,192,255,96,3,48,225,64,0,0,0,0
 2023-06-24 15:09:00.677,-36445.27929,28254.86252,960.3650523,20905.38542,16950.4007,-62621.7425,8823.149958,-56058.51037,-0.02,0.102,-0.984,192,0,0,0,0,0,0,0,0,0,0
 2023-06-24 15:09:00.677,-36644.50039,28791.55025,1513.369562,21384.62918,17498.64429,-63359.64064,9380.446003,-56482.34415,-0.02,0.102,-0.984,192,0,0,0,0,0,0,0,0,0,0
 2023-06-24 15:09:00.677,-36588.50927,29855.73916,2579.614828,22438.93861,18566.29772,-64206.79411,10443.65143,-57003.02804,-0.02,0.102,-0.984,192,0,0,0,0,0,0,0,0,0,0
 2023-06-24 15:09:00.677,-36344.60704,30080.12832,2786.882554,22697.16831,18772.06788,-64032.62931,10652.30497,-56925.55689,-0.02,0.102,-0.984,192,0,0,0,0,0,0,0,0,0,0
 2023-06-24 15:09:00.677,-36236.62576,29068.86835,1756.288321,21732.48938,17745.67577,-62999.107,9624.080017,-56308.04525,-0.02,0.102,-0.984,192,0,0,0,0,0,0,0,0,0,0
 2023-06-24 15:09:00.678,-36436.83033,28299.00721,1001.291096,20942.42226,16994.83597,-62616.08751,8871.921464,-56060.47732,-0.02,0.102,-0.984,192,0,0,0,0,0,0,0,0,0,0
 2023-06-24 15:09:00.678,-36647.42847,28784.66592,1510.709704,21370.70404,17494.91155,-63348.8224,9377.763793,-56481.69595,-0.02,0.102,-0.984,192,0,0,0,0,0,0,0,0,0,0
 2023-06-24 15:09:00.678,-36596.17592,29858.1755,2588.443767,22428.92503,18568.08586,-64203.5531,10446.71362,-57006.44785,-0.02,0.102,-0.984,192,0,0,0,0,0,0,0,0,0,0
 2023-06-24 15:09:00.678,-36338.3709,30188.0649,2896.808433,22798.17585,18882.08316,-64035.62445,10770.92567,-56931.03307,-0.02,0.102,-0.984,192,0,0,0,0,0,0,0,0,0,0
 2023-06-24 15:09:00.678,-36226.76864,29140.0363,1826.428095,21810.13934,17822.61048,-63006.7513,9718.493786,-56318.84114,-0.02,0.102,-0.984,192,0,0,0,0,0,0,0,0,0,0
 2023-06-24 15:09:00.678,-36424.46982,28351.15383,1050.710803,20999.79919,17045.8203,-62601.00008,8934.90868,-56057.34808,-0.016,0.098,-0.982,192,255,128,3,16,225,80,0,0,0,0
 2023-06-24 15:09:00.678,-36639.56066,28802.972,1520.589175,21395.91681,17510.2672,-63319.92159,9405.770529,-56473.35875,-0.016,0.098,-0.982,192,0,0,0,0,0,0,0,0,0,0
 2023-06-24 15:09:00.678,-36599.77455,29850.10652,2572.171697,22426.91337,18555.72534,-64190.43263,10445.88661,-57008.59362,-0.016,0.098,-0.982,192,0,0,0,0,0,0,0,0,0,0
 2023-06-24 15:09:00.678,-36346.0152,30197.18441,2899.758863,22805.17194,18879.57977,-64048.18613,10762.78964,-56946.70164,-0.016,0.098,-0.982,192,0,0,0,0,0,0,0,0,0,0
 2023-06-24 15:09:00.678,-36229.45085,29175.35206,1858.078165,21829.89828,17841.90003,-63028.25368,9728.842643,-56339.71767,-0.016,0.098,-0.982,192,0,0,0,0,0,0,0,0,0,0
 2023-06-24 15:09:00.678,-36432.22587,28288.85952,985.1084334,20934.04036,16980.77672,-62611.12542,8867.831095,-56074.62598,-0.016,0.098,-0.982,192,0,0,0,0,0,0,0,0,0,0
 2023-06-24 15:09:00.678,-36647.42847,28721.56694,1437.75361,21318.8927,17430.80675,-63319.00517,9312.809624,-56482.34415,-0.016,0.098,-0.982,192,0,0,0,0,0,0,0,0,0,0
 2023-06-24 15:09:00.678,-36605.5413,29806.47591,2526.104751,22388.98246,18513.79347,-64194.45594,10383.34642,-57017.22139,-0.016,0.098,-0.982,192,0,0,0,0,0,0,0,0,0,0
 2023-06-24 15:09:00.678,-36358.21925,30130.86678,2832.122485,22744.48696,18817.50897,-64075.20939,10688.20187,-56970.01451,-0.016,0.098,-0.982,192,0,0,0,0,0,0,0,0,0,0
 2023-06-24 15:09:00.678,-36237.67629,29134.18014,1814.000525,21792.25794,17802.18098,-63060.08256,9679.60175,-56366.83033,-0.016,0.098,-0.982,192,0,0,0,0,0,0,0,0,0,0
 2023-06-24 15:09:00.678,-36430.95183,28293.06165,984.4825845,20930.53114,16975.56877,-62611.37129,8859.024508,-56082.24792,-0.022,0.096,-0.982,192,255,80,3,0,225,80,0,0,0,0
 2023-06-24 15:09:00.678,-36651.54119,28706.32305,1417.771151,21300.18429,17410.75723,-63302.06255,9283.461783,-56483.28292,-0.022,0.096,-0.982,192,0,0,0,0,0,0,0,0,0,0
 2023-06-24 15:09:00.678,-36610.21282,29840.8529,2558.447726,22412.78707,18549.01982,-64179.39087,10421.45615,-57020.35064,-0.022,0.096,-0.982,192,0,0,0,0,0,0,0,0,0,0
 2023-06-24 15:09:00.678,-36364.18716,30188.28841,2883.620904,22797.57235,18872.27075,-64078.51745,10737.75568,-56986.93478,-0.022,0.096,-0.982,192,0,0,0,0,0,0,0,0,0,0
 2023-06-24 15:09:00.678,-36238.32449,29213.88647,1893.282162,21869.9079,17879.76389,-63069.44794,9760.939748,-56388.06449,-0.022,0.096,-0.982,192,0,0,0,0,0,0,0,0,0,0
 2023-06-24 15:09:00.678,-36424.55923,28367.47061,1062.06549,21001.47557,17052.50347,-62595.97094,8931.980602,-56086.24888,-0.022,0.096,-0.982,192,0,0,0,0,0,0,0,0,0,0
 2023-06-24 15:09:00.678,-36645.55092,28760.1684,1473.583457,21342.40673,17460.244,-63274.86047,9333.037953,-56474.96807,-0.022,0.096,-0.982,192,0,0,0,0,0,0,0,0,0,0
 2023-06-24 15:09:00.678,-36612.64916,29863.2717,2579.301903,22429.52853,18568.21997,-64167.14211,10437.39294,-57020.44004,-0.022,0.096,-0.982,192,0,0,0,0,0,0,0,0,0,0
 2023-06-24 15:09:00.678,-36373.93253,30181.73935,2879.441128,22784.89891,18869.25326,-64093.87309,10730.73724,-57004.32444,-0.022,0.096,-0.982,192,0,0,0,0,0,0,0,0,0,0
 2023-06-24 15:09:00.678,-36250.5956,29179.1295,1862.347348,21824.26564,17847.66678,-63100.06983,9718.113806,-56416.07123,-0.022,0.096,-0.982,192,0,0,0,0,0,0,0,0,0,0
 2023-06-24 15:09:00.678,-36438.01498,28286.98197,979.9451804,20922.19394,16972.32777,-62609.44904,8846.61929,-56105.67255,-0.016,0.096,-0.986,192,255,128,3,0,225,48,0,0,0,0
 2023-06-24 15:09:00.678,-36660.63835,28665.97815,1375.548706,21263.01333,17371.28405,-63270.61364,9238.221853,-56485.5181,-0.016,0.096,-0.986,192,0,0,0,0,0,0,0,0,0,0
 2023-06-24 15:09:00.678,-36637.43724,29745.58976,2456.993158,22314.75232,18449.4875,-64172.12655,10324.65074,-57039.34962,-0.016,0.096,-0.986,192,0,0,0,0,0,0,0,0,0,0
 2023-06-24 15:09:00.678,-36394.42908,30137.99699,2831.697802,22739.83779,18824.03568,-64114.83903,10696.36025,-57029.93954,-0.016,0.096,-0.986,192,0,0,0,0,0,0,0,0,0,0
 2023-06-24 15:09:00.678,-36254.01542,29255.90774,1932.218901,21907.0118,17925.80848,-63118.17475,9802.134013,-56435.49489,-0.016,0.096,-0.986,192,0,0,0,0,0,0,0,0,0,0
 2023-06-24 15:09:00.678,-36436.11508,28350.19271,1042.060678,20990.67968,17036.94666,-62606.07393,8912.266363,-56111.28284,-0.016,0.096,-0.986,192,0,0,0,0,0,0,0,0,0,0
 2023-06-24 15:09:00.678,-36654.49162,28738.48721,1450.874084,21330.76147,17443.03315,-63247.07726,9314.776577,-56479.63959,-0.016,0.096,-0.986,192,0,0,0,0,0,0,0,0,0,0
 2023-06-24 15:09:00.678,-36630.30703,29845.90439,2564.169772,22414.79873,18548.48338,-64149.97597,10422.37257,-57031.30299,-0.016,0.096,-0.986,192,0,0,0,0,0,0,0,0,0,0
 2023-06-24 15:09:00.678,-36384.25903,30277.02484,2976.425347,22893.0143,18967.77975,-64108.60289,10833.80113,-57031.3924,-0.016,0.096,-0.986,192,0,0,0,0,0,0,0,0,0,0
 2023-06-24 15:09:00.678,-36254.66362,29261.20511,1939.818494,21934.07976,17936.78319,-63135.60911,9805.106795,-56459.32185,-0.016,0.096,-0.986,192,0,0,0,0,0,0,0,0,0,0
 2023-06-24 15:09:00.678,-36432.18117,28335.28409,1027.73321,20990.76909,17021.09927,-62604.68812,8889.713453,-56124.38096,-0.02,0.092,-0.984,192,255,96,2,224,225,64,0,0,0,0
 2023-06-24 15:09:00.678,-36651.69765,28719.22001,1433.529131,21318.49036,17417.90979,-63232.05688,9292.536592,-56481.40538,-0.02,0.092,-0.984,192,0,0,0,0,0,0,0,0,0,0
 2023-06-24 15:09:00.678,-36637.25843,29795.97059,2514.347734,22369.06706,18494.9286,-64146.28794,10365.19681,-57038.34379,-0.02,0.092,-0.984,192,0,0,0,0,0,0,0,0,0,0
 2023-06-24 15:09:00.678,-36399.54762,30203.17467,2903.111625,22814.62673,18889.36983,-64130.99934,10764.51072,-57053.54298,-0.02,0.092,-0.984,192,0,0,0,0,0,0,0,0,0,0
 2023-06-24 15:09:00.678,-36258.66458,29270.7046,1954.592997,21934.10211,17937.58785,-63159.43607,9818.048455,-56481.00304,-0.02,0.092,-0.984,192,0,0,0,0,0,0,0,0,0,0
 2023-06-24 15:09:00.678,-36427.80023,28373.7738,1064.010091,21024.96726,17050.04478,-62601.02243,8930.080704,-56129.00777,-0.02,0.092,-0.984,192,0,0,0,0,0,0,0,0,0,0
 2023-06-24 15:09:00.678,-36654.04459,28711.24044,1420.632174,21314.93644,17406.17513,-63216.03068,9281.181905,-56478.45494,-0.02,0.092,-0.984,192,0,0,0,0,0,0,0,0,0,0
 2023-06-24 15:09:00.678,-36649.99892,29750.59655,2464.793916,22336.27705,18457.64589,-64140.78941,10329.88105,-57044.02113,-0.02,0.092,-0.984,192,0,0,0,0,0,0,0,0,0,0
 2023-06-24 15:09:00.678,-36411.52816,30194.32338,2888.515936,22809.1282,18886.91114,-64143.91865,10754.40773,-57070.79852,-0.02,0.092,-0.984,192,0,0,0,0,0,0,0,0,0,0
 2023-06-24 15:09:00.678,-36261.83853,29289.43536,1963.109012,21950.88827,17958.26321,-63182.36896,9819.277801,-56503.10892,-0.02,0.092,-0.984,192,0,0,0,0,0,0,0,0,0,0
 2023-06-24 15:09:00.678,-36427.55436,28344.82829,1029.186073,20993.85363,17023.15563,-62605.38102,8892.462718,-56138.46256,-0.022,0.09,-0.99,192,255,80,2,208,225,16,0,0,0,0
 2023-06-24 15:09:00.678,-36661.8677,28629.47775,1336.321394,21237.82292,17335.07423,-63207.9617,9218.999352,-56481.74065,-0.022,0.09,-0.99,192,0,0,0,0,0,0,0,0,0,0
 2023-06-24 15:09:00.678,-36661.59948,29691.40913,2408.713389,22277.29079,18404.89577,-64136.56493,10273.50995,-57049.18439,-0.022,0.09,-0.99,192,0,0,0,0,0,0,0,0,0,0
 2023-06-24 15:09:00.678,-36428.89547,30142.17676,2842.538398,22747.10211,18829.10953,-64163.0741,10695.82381,-57092.14444,-0.022,0.09,-0.99,192,0,0,0,0,0,0,0,0,0,0
 2023-06-24 15:09:00.678,-36278.33411,29259.93106,1945.495837,21912.73384,17927.90954,-63211.24741,9798.445976,-56530.95919,-0.022,0.09,-0.99,192,0,0,0,0,0,0,0,0,0,0
 2023-06-24 15:09:00.678,-36436.29389,28337.85454,1031.19773,20988.13158,17022.26156,-62610.2537,8892.194497,-56150.55485,-0.022,0.09,-0.99,192,0,0,0,0,0,0,0,0,0,0
 2023-06-24 15:09:00.678,-36668.97555,28636.67502,1349.285406,21247.45652,17344.59607,-63194.4389,9210.103358,-56481.15951,-0.022,0.09,-0.99,192,0,0,0,0,0,0,0,0,0,0
 2023-06-24 15:09:00.678,-36675.61402,29689.73275,2414.949526,22274.92151,18400.55953,-64129.59118,10262.93758,-57049.72083,-0.022,0.09,-0.99,192,0,0,0,0,0,0,0,0,0,0
 2023-06-24 15:09:00.678,-36441.23363,30169.95998,2877.585933,22784.69775,18866.61576,-64173.80293,10730.82664,-57100.45929,-0.022,0.09,-0.99,192,0,0,0,0,0,0,0,0,0,0
 2023-06-24 15:09:00.678,-36276.97066,29372.58385,2056.204028,22035.8696,18053.36989,-63222.75856,9922.207585,-56538.84936,-0.022,0.09,-0.99,192,0,0,0,0,0,0,0,0,0,0
 2023-06-24 15:09:00.678,-36443.40175,28344.56007,1038.551454,20997.51931,17031.85046,-62608.73379,8898.251819,-56154.9805,-0.022,0.094,-0.99,192,255,80,2,240,225,16,0,0,0,0
 2023-06-24 15:09:00.678,-36681.47018,28614.52444,1332.700411,21215.1359,17325.26181,-63179.53028,9197.69814,-56479.41607,-0.022,0.094,-0.99,192,0,0,0,0,0,0,0,0,0,0
 2023-06-24 15:09:00.678,-36692.33313,29680.16621,2404.399503,22252.90504,18392.82583,-64122.14805,10261.3059,-57051.03958,-0.022,0.094,-0.99,192,0,0,0,0,0,0,0,0,0,0
 2023-06-24 15:09:00.678,-36459.51735,30181.82876,2892.15927,22783.37899,18877.99279,-64187.28103,10739.09679,-57115.9714,-0.022,0.094,-0.99,192,0,0,0,0,0,0,0,0,0,0
 2023-06-24 15:09:00.678,-36288.92884,29412.12409,2098.806453,22076.7733,18095.94996,-63246.98785,9953.54473,-56562.34104,-0.022,0.094,-0.99,192,0,0,0,0,0,0,0,0,0,0
 2023-06-24 15:09:00.678,-36444.20641,28392.57162,1086.697112,21046.55904,17083.95238,-62608.33145,8953.103,-56161.64132,-0.022,0.094,-0.99,192,0,0,0,0,0,0,0,0,0,0
 2023-06-24 15:09:00.678,-36686.8346,28593.11147,1306.839443,21193.94644,17298.9091,-63167.75092,9163.790544,-56479.37137,-0.022,0.094,-0.99,192,0,0,0,0,0,0,0,0,0,0
 2023-06-24 15:09:00.678,-36700.60327,29664.27412,2383.902953,22236.65532,18373.80449,-64113.60969,10237.92598,-57051.956,-0.022,0.094,-0.99,192,0,0,0,0,0,0,0,0,0,0
 2023-06-24 15:09:00.678,-36474.64949,30149.68695,2857.759936,22751.61716,18848.80142,-64203.91073,10714.17459,-57130.52239,-0.022,0.094,-0.99,192,0,0,0,0,0,0,0,0,0,0
 2023-06-24 15:09:00.678,-36306.76553,29368.94052,2061.970778,22015.19424,18046.32909,-63281.49894,9914.362122,-56588.44788,-0.022,0.094,-0.99,192,0,0,0,0,0,0,0,0,0,0
 2023-06-24 15:09:00.678,-36457.81862,28334.43473,1030.661289,20980.37553,17020.60753,-62622.346,8885.108994,-56178.02515,-0.018,0.1,-0.992,192,255,112,3,32,225,0,0,0,0,0
 2023-06-24 15:09:00.678,-36696.98229,28558.10863,1273.065957,21146.47134,17256.46314,-63160.24073,9116.471901,-56481.20421,-0.018,0.1,-0.992,192,0,0,0,0,0,0,0,0,0,0
 2023-06-24 15:09:00.678,-36715.6907,29629.11482,2352.029366,22180.70891,18328.78808,-64110.43574,10191.30024,-57055.39817,-0.018,0.1,-0.992,192,0,0,0,0,0,0,0,0,0,0
 2023-06-24 15:09:00.678,-36488.08288,30135.27008,2842.493694,22730.85239,18826.13675,-64216.3383,10686.77136,-57143.77697,-0.018,0.1,-0.992,192,0,0,0,0,0,0,0,0,0,0
 2023-06-24 15:09:00.678,-36311.86173,29378.88704,2066.731699,22033.20975,18049.32422,-63300.72144,9913.915087,-56605.3905,-0.018,0.1,-0.992,192,0,0,0,0,0,0,0,0,0,0
 2023-06-24 15:09:00.678,-36452.92359,28361.5921,1057.304568,21006.9294,17041.43936,-62620.78138,8923.196366,-56180.26032,-0.018,0.1,-0.992,192,0,0,0,0,0,0,0,0,0,0
 2023-06-24 15:09:00.678,-36696.69172,28532.29237,1246.310919,21136.77068,17240.10166,-63145.98032,9116.673066,-56478.85728,-0.018,0.1,-0.992,192,0,0,0,0,0,0,0,0,0,0
 2023-06-24 15:09:00.678,-36728.16297,29543.93232,2265.930446,22123.5555,18254.42383,-64107.10533,10130.88347,-57061.88018,-0.018,0.1,-0.992,192,0,0,0,0,0,0,0,0,0,0
 2023-06-24 15:09:00.678,-36501.38217,30098.05442,2808.072008,22699.31408,18787.1106,-64232.07393,10664.68783,-57162.50773,-0.018,0.1,-0.992,192,0,0,0,0,0,0,0,0,0,0
 2023-06-24 15:09:00.678,-36323.97638,29356.06591,2039.999013,22011.5509,18031.1746,-63332.59503,9909.489442,-56635.65476,-0.018,0.1,-0.992,192,0,0,0,0,0,0,0,0,0,0
 2023-06-24 15:09:00.678,-36466.96049,28281.43874,970.8033169,20934.19682,16965.39872,-62638.59572,8833.722333,-56203.30497,-0.016,0.096,-0.986,192,255,128,3,0,225,48,0,0,0,0
 2023-06-24 15:09:00.678,-36701.83262,28499.92704,1217.208948,21087.75331,17193.94531,-63136.88316,9061.553664,-56481.7183,-0.016,0.096,-0.986,192,0,0,0,0,0,0,0,0,0,0
 2023-06-24 15:09:00.678,-36732.56627,29554.19177,2276.279304,22114.88302,18255.80964,-64096.35414,10121.31692,-57061.29903,-0.016,0.096,-0.986,192,0,0,0,0,0,0,0,0,0,0
 2023-06-24 15:09:00.678,-36507.93123,30125.32355,2826.892176,22721.3529,18816.12317,-64243.69684,10683.53035,-57173.66125,-0.016,0.096,-0.986,192,0,0,0,0,0,0,0,0,0,0
 2023-06-24 15:09:00.678,-36330.50309,29365.81127,2040.557807,22018.65876,18040.04825,-63361.36173,9910.271753,-56658.96763,-0.016,0.096,-0.986,192,0,0,0,0,0,0,0,0,0,0
 2023-06-24 15:09:00.678,-36466.80402,28294.11218,977.2629711,20946.28912,16977.37926,-62645.59181,8847.602766,-56214.34673,-0.016,0.096,-0.986,192,0,0,0,0,0,0,0,0,0,0
 2023-06-24 15:09:00.678,-36702.48082,28493.26622,1199.461663,21093.90004,17194.4594,-63124.34383,9063.2971,-56481.20421,-0.016,0.096,-0.986,192,0,0,0,0,0,0,0,0,0,0
 2023-06-24 15:09:00.678,-36734.10854,29578.64458,2294.026589,22143.85088,18285.5151,-64081.87021,10147.84844,-57058.79564,-0.016,0.096,-0.986,192,0,0,0,0,0,0,0,0,0,0
 2023-06-24 15:09:00.678,-36516.29079,30134.17484,2838.179807,22720.79411,18824.9521,-64252.50343,10687.84424,-57185.86531,-0.016,0.096,-0.986,192,0,0,0,0,0,0,0,0,0,0
 2023-06-24 15:09:00.679,-36332.38063,29416.25916,2100.907517,22054.98034,18092.35133,-63377.16441,9955.198759,-56676.11142,-0.016,0.096,-0.986,192,0,0,0,0,0,0,0,0,0,0
 2023-06-24 15:09:00.679,-36456.9469,28358.61932,1047.380393,21015.02073,17049.82126,-62636.02527,8909.137119,-56215.06199,-0.022,0.096,-0.994,192,255,80,3,0,224,240,0,0,0,0
 2023-06-24 15:09:00.679,-36696.02116,28517.69668,1224.137989,21131.31686,17231.16097,-63100.9639,9089.605104,-56473.78343,-0.022,0.096,-0.994,192,0,0,0,0,0,0,0,0,0,0
 2023-06-24 15:09:00.679,-36734.44381,29592.43561,2313.338496,22165.86735,18304.71525,-64064.23468,10164.81342,-57051.37486,-0.022,0.096,-0.994,192,0,0,0,0,0,0,0,0,0,0
 2023-06-24 15:09:00.679,-36521.07406,30158.6053,2866.14184,22753.78528,18857.38449,-64258.44899,10710.57596,-57191.87792,-0.022,0.096,-0.994,192,0,0,0,0,0,0,0,0,0,0
 2023-06-24 15:09:00.679,-36337.63329,29455.48647,2136.938529,22101.02494,18138.64179,-63401.66192,9987.698196,-56692.94228,-0.022,0.096,-0.994,192,0,0,0,0,0,0,0,0,0,0
 2023-06-24 15:09:00.679,-36462.91482,28352.80786,1036.472742,21000.31328,17043.2275,-62651.49267,8894.072043,-56227.15428,-0.022,0.096,-0.994,192,0,0,0,0,0,0,0,0,0,0
 2023-06-24 15:09:00.679,-36705.07362,28459.6492,1172.281941,21055.92442,17165.5586,-63101.36623,9025.947335,-56479.14785,-0.022,0.096,-0.994,192,0,0,0,0,0,0,0,0,0,0
 2023-06-24 15:09:00.679,-36756.21441,29474.32899,2193.108462,22033.29915,18184.73109,-64072.37072,10052.54061,-57064.58474,-0.022,0.096,-0.994,192,0,0,0,0,0,0,0,0,0,0
 2023-06-24 15:09:00.679,-36543.80578,30072.23816,2770.342263,22658.4998,18762.099,-64287.01452,10618.755,-57217.94006,-0.022,0.096,-0.994,192,0,0,0,0,0,0,0,0,0,0
 2023-06-24 15:09:00.679,-36352.4078,29411.85587,2086.803566,22061.39529,18087.34454,-63439.34696,9938.233785,-56725.59818,-0.022,0.096,-0.994,192,0,0,0,0,0,0,0,0,0,0
 2023-06-24 15:09:00.679,-36460.36672,28377.81946,1055.359966,21038.19949,17062.78528,-62657.99703,8924.068084,-56239.71596,-0.018,0.09,-0.992,192,255,112,2,208,225,0,0,0,0,0
 2023-06-24 15:09:00.679,-36702.54787,28491.94747,1190.476261,21102.349,17196.33695,-63085.78707,9062.738307,-56478.27613,-0.018,0.09,-0.992,192,0,0,0,0,0,0,0,0,0,0
 2023-06-24 15:09:00.679,-36758.85192,29511.70111,2223.462131,22081.71303,18225.52302,-64056.121,10089.82332,-57061.5449,-0.018,0.09,-0.992,192,0,0,0,0,0,0,0,0,0,0
 2023-06-24 15:09:00.679,-36543.58227,30160.57225,2862.923189,22755.55107,18860.87136,-64281.18071,10724.4564,-57220.66697,-0.018,0.09,-0.992,192,0,0,0,0,0,0,0,0,0,0
 2023-06-24 15:09:00.679,-36347.78098,29517.06553,2201.646829,22162.84986,18194.09647,-63444.62197,10054.3958,-56737.44461,-0.018,0.09,-0.992,192,0,0,0,0,0,0,0,0,0,0
 2023-06-24 15:09:00.679,-36466.58051,28340.35794,1029.364887,20995.57471,17027.35776,-62660.96981,8878.582284,-56253.21642,-0.018,0.09,-0.992,192,0,0,0,0,0,0,0,0,0,0
 2023-06-24 15:09:00.679,-36707.91229,28431.32954,1140.207188,21043.11687,17139.11648,-63072.84541,8995.437204,-56480.08662,-0.018,0.09,-0.992,192,0,0,0,0,0,0,0,0,0,0
 2023-06-24 15:09:00.679,-36770.8101,29435.28049,2156.764526,22005.78415,18149.48239,-64047.49323,10008.64178,-57064.07065,-0.018,0.09,-0.992,192,0,0,0,0,0,0,0,0,0,0
 2023-06-24 15:09:00.679,-36562.17892,30085.62685,2789.028321,22674.63776,18782.64025,-64298.9727,10638.42453,-57238.50366,-0.018,0.09,-0.992,192,0,0,0,0,0,0,0,0,0,0
 2023-06-24 15:09:00.679,-36361.05792,29494.17734,2173.86361,22129.23284,18167.81082,-63475.31092,10022.36575,-56763.6185,-0.018,0.09,-0.992,192,0,0,0,0,0,0,0,0,0,0
