 Timestamp_formatted, EXG Channel 0, EXG Channel 1, EXG Channel 2, EXG Channel 3, EXG Channel 4, EXG Channel 5, EXG Channel 6, EXG Channel 7, Accel Channel 0, Accel Channel 1, Accel Channel 2, Other, Other.1, Other.2, Other.3, Other.4, Other.5, Other.6, Analog Channel 0, Analog Channel 1, Analog Channel 2, Other.7
 2023-06-24 15:06:57.009,-55383.64415,32036.75533,4569.590636,26530.93952,21046.53669,-58979.19047,13869.10097,-51649.82994,-0.02,0.1,-0.994,192,0,0,0,0,0,0,0,0,0,0
 2023-06-24 15:06:57.009,-55622.22667,31761.78417,4319.832244,26199.21728,20793.0232,-59014.21565,13620.88485,-51664.91737,-0.02,0.1,-0.994,192,0,0,0,0,0,0,0,0,0,0
 2023-06-24 15:06:57.009,-55798.67134,32579.74626,5155.9663,26956.85201,21629.53724,-60039.40076,14459.45525,-52298.03053,-0.02,0.1,-0.994,192,0,0,0,0,0,0,0,0,0,0
 2023-06-24 15:06:57.009,-55653.49676,33573.84009,6140.538292,27955.70677,22616.09854,-60675.91139,15448.0282,-52698.08205,-0.02,0.1,-0.994,192,0,0,0,0,0,0,0,0,0,0
 2023-06-24 15:06:57.009,-55390.72965,33371.95913,5912.125815,27815.36017,22389.20598,-60083.27724,15226.85769,-52337.74958,-0.02,0.1,-0.994,192,0,0,0,0,0,0,0,0,0,0
 2023-06-24 15:06:57.009,-55381.94542,32127.9728,4660.09285,26610.31057,21139.18467,-58984.33137,13975.83055,-51647.66182,-0.02,0.096,-0.988,192,255,96,3,0,225,32,0,0,0,0
 2023-06-24 15:06:57.009,-55632.06144,31734.73856,4293.881869,26170.51764,20768.43629,-59017.03197,13604.76924,-51668.00191,-0.02,0.096,-0.988,192,0,0,0,0,0,0,0,0,0,0
 2023-06-24 15:06:57.009,-55801.91234,32585.4683,5163.230617,26949.0289,21632.37591,-60025.94501,14474.8556,-52290.5874,-0.02,0.096,-0.988,192,0,0,0,0,0,0,0,0,0,0
 2023-06-24 15:06:57.009,-55662.86214,33548.89554,6115.258469,27921.97799,22581.85566,-60673.05036,15420.26733,-52694.79635,-0.02,0.096,-0.988,192,0,0,0,0,0,0,0,0,0,0
 2023-06-24 15:06:57.009,-55397.1446,33364.85128,5906.1579,27813.30381,22382.4781,-60092.93319,15210.89854,-52339.09069,-0.02,0.096,-0.988,192,0,0,0,0,0,0,0,0,0,0
 2023-06-24 15:06:57.009,-55382.05718,32142.76965,4675.515553,26633.31051,21156.93196,-58992.86973,13984.7489,-51647.59477,-0.02,0.096,-0.988,192,0,0,0,0,0,0,0,0,0,0
 2023-06-24 15:06:57.009,-55629.93802,31749.49071,4302.35318,26194.85869,20778.71809,-59011.37698,13602.44466,-51658.05538,-0.02,0.096,-0.988,192,0,0,0,0,0,0,0,0,0,0
 2023-06-24 15:06:57.009,-55799.69952,32600.73454,5173.780641,26976.61096,21642.41185,-60013.42803,14478.43188,-52273.60007,-0.02,0.096,-0.988,192,0,0,0,0,0,0,0,0,0,0
 2023-06-24 15:06:57.009,-55662.68333,33558.41739,6124.825016,27931.58924,22590.23757,-60666.72482,15424.89415,-52681.9888,-0.02,0.096,-0.988,192,0,0,0,0,0,0,0,0,0,0
 2023-06-24 15:06:57.009,-55405.10182,33330.54135,5875.223085,27760.77721,22342.26732,-60106.16542,15180.34371,-52342.77872,-0.02,0.096,-0.988,192,0,0,0,0,0,0,0,0,0,0
 2023-06-24 15:06:57.009,-55381.83366,32176.61019,4711.255993,26653.87412,21187.50914,-59004.78321,14013.44854,-51649.65113,-0.022,0.096,-0.986,192,255,80,3,0,225,48,0,0,0,0
 2023-06-24 15:06:57.009,-55625.11005,31806.57706,4361.94293,26244.83719,20834.08336,-59007.66659,13646.61171,-51646.81246,-0.022,0.096,-0.986,192,0,0,0,0,0,0,0,0,0,0
 2023-06-24 15:06:57.009,-55795.38563,32642.97934,5216.1819,27015.90532,21681.50505,-59999.70406,14509.52315,-52254.91402,-0.022,0.096,-0.986,192,0,0,0,0,0,0,0,0,0,0
 2023-06-24 15:06:57.010,-55668.33832,33549.43199,6114.051475,27919.13932,22577.78765,-60665.58488,15417.94275,-52671.50583,-0.022,0.096,-0.986,192,0,0,0,0,0,0,0,0,0,0
 2023-06-24 15:06:57.010,-55406.97937,33390.71225,5933.784656,27811.53802,22396.58205,-60113.47444,15230.85865,-52334.01684,-0.022,0.096,-0.986,192,0,0,0,0,0,0,0,0,0,0
 2023-06-24 15:06:57.010,-55386.61693,32217.26802,4751.287967,26684.87599,21222.75784,-59015.42264,14050.61949,-51644.53258,-0.022,0.096,-0.986,192,0,0,0,0,0,0,0,0,0,0
 2023-06-24 15:06:57.010,-55629.73686,31840.17174,4394.889402,26268.6418,20866.40398,-59000.35757,13688.18595,-51634.25078,-0.022,0.096,-0.986,192,0,0,0,0,0,0,0,0,0,0
 2023-06-24 15:06:57.010,-55804.75102,32638.97838,5213.834967,27008.81982,21681.48269,-59985.30954,14509.36669,-52241.32416,-0.022,0.096,-0.986,192,0,0,0,0,0,0,0,0,0,0
 2023-06-24 15:06:57.010,-55674.77562,33602.45032,6172.054252,27971.17418,22633.01881,-60653.04555,15460.58988,-52659.90527,-0.022,0.096,-0.986,192,0,0,0,0,0,0,0,0,0,0
 2023-06-24 15:06:57.010,-55417.21647,33431.90651,5977.370557,27860.35423,22438.44687,-60119.06238,15265.92854,-52336.98962,-0.022,0.096,-0.986,192,0,0,0,0,0,0,0,0,0,0
 2023-06-24 15:06:57.010,-55396.33994,32241.3632,4777.193639,26716.28019,21249.31172,-59022.21757,14076.74868,-51652.57921,-0.022,0.096,-0.99,192,255,80,3,0,225,16,0,0,0,0
 2023-06-24 15:06:57.010,-55633.82723,31879.64492,4432.66385,26315.66987,20910.32516,-58984.42077,13733.76116,-51629.13223,-0.022,0.096,-0.99,192,0,0,0,0,0,0,0,0,0,0
 2023-06-24 15:06:57.010,-55814.45167,32646.9356,5216.964211,27023.72843,21691.04924,-59963.31542,14508.02559,-52233.03166,-0.022,0.096,-0.99,192,0,0,0,0,0,0,0,0,0,0
 2023-06-24 15:06:57.010,-55692.54526,33576.67876,6137.252586,27957.53961,22613.41633,-60647.39056,15423.91067,-52658.78769,-0.022,0.096,-0.99,192,0,0,0,0,0,0,0,0,0,0
 2023-06-24 15:06:57.010,-55425.93365,33482.22029,6020.665886,27902.66608,22488.0901,-60125.41027,15312.01784,-52339.04598,-0.022,0.096,-0.99,192,0,0,0,0,0,0,0,0,0,0
 2023-06-24 15:06:57.010,-55397.43518,32304.1716,4835.732858,26762.593,21303.69351,-59029.28073,14136.33843,-51651.55103,-0.022,0.096,-0.99,192,0,0,0,0,0,0,0,0,0,0
 2023-06-24 15:06:57.010,-55643.57259,31834.49439,4389.390873,26265.78078,20867.18629,-58987.77354,13674.48433,-51624.9748,-0.022,0.096,-0.99,192,0,0,0,0,0,0,0,0,0,0
 2023-06-24 15:06:57.010,-55818.27382,32631.49054,5209.811653,27010.87618,21682.51087,-59955.69348,14476.95666,-52217.83247,-0.022,0.096,-0.99,192,0,0,0,0,0,0,0,0,0,0
 2023-06-24 15:06:57.010,-55696.54622,33561.0996,6128.758923,27940.7311,22596.67487,-60647.59173,15390.27129,-52647.83533,-0.022,0.096,-0.99,192,0,0,0,0,0,0,0,0,0,0
 2023-06-24 15:06:57.010,-55439.05412,33404.01154,5945.385211,27843.72453,22417.32447,-60146.13034,15215.30184,-52341.43762,-0.022,0.096,-0.99,192,0,0,0,0,0,0,0,0,0,0
 2023-06-24 15:06:57.010,-55413.21551,32207.58971,4741.877883,26687.28998,21213.34776,-59055.11934,14028.2901,-51656.9825,-0.016,0.1,-0.986,192,255,128,3,32,225,48,0,0,0,0
 2023-06-24 15:06:57.010,-55649.00406,31802.15142,4361.004157,26227.84987,20823.95802,-58987.9747,13647.52813,-51612.90486,-0.016,0.1,-0.986,192,0,0,0,0,0,0,0,0,0,0
 2023-06-24 15:06:57.010,-55829.27088,32583.43429,5162.828286,26953.61101,21624.77632,-59950.70904,14446.53594,-52203.21443,-0.016,0.1,-0.986,192,0,0,0,0,0,0,0,0,0,0
 2023-06-24 15:06:57.010,-55714.65113,33508.26007,6080.322692,27887.69041,22542.40484,-60657.38179,15354.39674,-52643.32028,-0.016,0.1,-0.986,192,0,0,0,0,0,0,0,0,0,0
 2023-06-24 15:06:57.010,-55458.96953,33374.64134,5922.1841,27818.33295,22393.63162,-60170.29258,15211.50204,-52346.3103,-0.016,0.1,-0.986,192,0,0,0,0,0,0,0,0,0,0
 2023-06-24 15:06:57.010,-55426.35833,32222.56538,4762.128563,26693.59317,21230.78212,-59073.91716,14052.6982,-51658.21185,-0.016,0.1,-0.986,192,0,0,0,0,0,0,0,0,0,0
 2023-06-24 15:06:57.010,-55664.51617,31761.13597,4319.944003,26191.68475,20785.66948,-58993.00384,13602.17644,-51608.85919,-0.016,0.1,-0.986,192,0,0,0,0,0,0,0,0,0,0
 2023-06-24 15:06:57.010,-55845.40884,32518.1225,5097.292971,26879.89496,21553.83188,-59947.87037,14380.79946,-52197.15711,-0.016,0.1,-0.986,192,0,0,0,0,0,0,0,0,0,0
 2023-06-24 15:06:57.010,-55726.78813,33495.60898,6068.364509,27856.1074,22528.18913,-60658.0747,15351.64748,-52638.4923,-0.016,0.1,-0.986,192,0,0,0,0,0,0,0,0,0,0
 2023-06-24 15:06:57.010,-55466.9491,33401.82107,5948.112124,27833.1298,22416.69862,-60183.346,15227.5953,-52347.09261,-0.016,0.1,-0.986,192,0,0,0,0,0,0,0,0,0,0
 2023-06-24 15:06:57.010,-55423.4079,32300.03653,4833.140055,26770.59493,21306.44277,-59083.10373,14119.93225,-51654.90379,-0.016,0.1,-0.982,192,255,128,3,32,225,80,0,0,0,0
 2023-06-24 15:06:57.010,-55659.93406,31816.14361,4366.100355,26249.53106,20841.83941,-58987.86294,13654.41247,-51595.06817,-0.016,0.1,-0.982,192,0,0,0,0,0,0,0,0,0,0
 2023-06-24 15:06:57.010,-55841.20671,32564.54707,5135.402696,26936.98131,21604.74916,-59933.34173,14418.08217,-52174.67125,-0.016,0.1,-0.982,192,0,0,0,0,0,0,0,0,0,0
 2023-06-24 15:06:57.010,-55726.00582,33527.99666,6098.069978,27894.6418,22563.43783,-60656.28656,15382.04585,-52622.91314,-0.016,0.1,-0.982,192,0,0,0,0,0,0,0,0,0,0
 2023-06-24 15:06:57.010,-55459.84125,33482.44381,6029.740695,27912.21028,22500.18239,-60192.28669,15304.82057,-52336.85551,-0.016,0.1,-0.982,192,0,0,0,0,0,0,0,0,0,0
 2023-06-24 15:06:57.010,-55416.16594,32341.16374,4876.12246,26809.75518,21340.73035,-59096.02303,14153.3034,-51649.56172,-0.016,0.1,-0.982,192,0,0,0,0,0,0,0,0,0,0
 2023-06-24 15:06:57.010,-55646.83594,31862.88111,4416.995277,26287.50667,20877.73632,-58980.8445,13697.81955,-51578.17025,-0.016,0.1,-0.982,192,0,0,0,0,0,0,0,0,0,0
 2023-06-24 15:06:57.010,-55827.16981,32602.94737,5175.546429,26965.34568,21638.61205,-59918.43312,14465.06553,-52154.06295,-0.016,0.1,-0.982,192,0,0,0,0,0,0,0,0,0,0
 2023-06-24 15:06:57.010,-55721.66958,33530.85769,6097.958219,27902.06258,22560.30858,-60656.57713,15382.64935,-52614.97827,-0.016,0.1,-0.982,192,0,0,0,0,0,0,0,0,0,0
 2023-06-24 15:06:57.010,-55458.96953,33492.83737,6037.675564,27924.88371,22505.32329,-60207.46353,15324.78068,-52338.42013,-0.016,0.1,-0.982,192,0,0,0,0,0,0,0,0,0,0
 2023-06-24 15:06:57.010,-55416.83649,32316.19684,4849.166256,26793.43841,21324.65945,-59115.02202,14150.73295,-51653.27211,-0.014,0.1,-0.986,192,255,144,3,32,225,48,0,0,0,0
 2023-06-24 15:06:57.488,-55645.6513,31829.75582,4386.28398,26262.8527,20856.4351,-58982.09619,13686.48722,-51569.92246,-0.014,0.1,-0.986,192,0,0,0,0,0,0,0,0,0,0
 2023-06-24 15:06:57.488,-55831.08137,32538.86492,5116.046085,26915.54599,21578.64232,-59910.29709,14400.31253,-52139.48961,-0.014,0.1,-0.986,192,0,0,0,0,0,0,0,0,0,0
 2023-06-24 15:06:57.488,-55728.86684,33468.96571,6034.613375,27852.2629,22504.1163,-60657.94059,15325.6524,-52604.04826,-0.014,0.1,-0.986,192,0,0,0,0,0,0,0,0,0,0
 2023-06-24 15:06:57.488,-55473.16289,33412.01346,5955.577607,27837.48839,22422.39832,-60228.58593,15251.60107,-52339.78359,-0.014,0.1,-0.986,192,0,0,0,0,0,0,0,0,0,0
 2023-06-24 15:06:57.488,-55412.99199,32359.02278,4891.209887,26821.80277,21360.35518,-59120.87817,14186.5628,-51643.39264,-0.014,0.1,-0.986,192,0,0,0,0,0,0,0,0,0,0
 2023-06-24 15:06:57.488,-55641.78445,31858.09783,4407.540489,26289.85361,20877.15517,-58970.47329,13696.16553,-51550.78936,-0.014,0.1,-0.986,192,0,0,0,0,0,0,0,0,0,0
 2023-06-24 15:06:57.488,-55840.62557,32506.41018,5074.494192,26889.99795,21544.71237,-59899.81412,14360.95111,-52121.89878,-0.014,0.1,-0.986,192,0,0,0,0,0,0,0,0,0,0
 2023-06-24 15:06:57.488,-55747.08351,33428.79962,5991.698026,27805.27953,22463.68199,-60661.20394,15282.31237,-52596.1134,-0.014,0.1,-0.986,192,0,0,0,0,0,0,0,0,0,0
 2023-06-24 15:06:57.488,-55482.48356,33451.88897,5991.273343,27874.39112,22463.07849,-60235.962,15273.28226,-52334.30741,-0.014,0.1,-0.986,192,0,0,0,0,0,0,0,0,0,0
 2023-06-24 15:06:57.488,-55427.9006,32350.14914,4880.816326,26811.76684,21344.84307,-59133.19399,14162.22175,-51642.67738,-0.016,0.096,-0.99,192,255,128,3,0,225,16,0,0,0,0
 2023-06-24 15:06:57.488,-55652.62504,31852.39814,4407.518137,26272.55336,20866.15811,-58964.57243,13698.57951,-51536.81952,-0.016,0.096,-0.99,192,0,0,0,0,0,0,0,0,0,0
 2023-06-24 15:06:57.488,-55849.58861,32532.82994,5105.339599,26907.25349,21569.67927,-59882.268,14392.98116,-52099.59174,-0.016,0.096,-0.99,192,0,0,0,0,0,0,0,0,0,0
 2023-06-24 15:06:57.488,-55755.53247,33486.31066,6050.483114,27857.73907,22518.46612,-60653.33613,15341.32097,-52577.87437,-0.016,0.096,-0.99,192,0,0,0,0,0,0,0,0,0,0
 2023-06-24 15:06:57.488,-55501.61666,33452.49247,5992.435633,27875.35225,22466.45361,-60252.41289,15299.41145,-52332.51927,-0.016,0.096,-0.99,192,0,0,0,0,0,0,0,0,0,0
 2023-06-24 15:06:57.488,-55451.59345,32301.75761,4826.79216,26773.56771,21307.15803,-59155.8363,14139.40062,-51646.96892,-0.016,0.096,-0.99,192,0,0,0,0,0,0,0,0,0,0
 2023-06-24 15:06:57.488,-55676.65317,31784.89587,4330.002288,26216.58459,20803.37206,-58975.16715,13625.55636,-51535.16549,-0.016,0.096,-0.99,192,0,0,0,0,0,0,0,0,0,0
 2023-06-24 15:06:57.488,-55876.16484,32447.33452,5014.613869,26813.06324,21482.77569,-59884.36906,14307.0387,-52091.67923,-0.016,0.096,-0.99,192,0,0,0,0,0,0,0,0,0,0
 2023-06-24 15:06:57.488,-55776.20784,33464.80828,6030.18773,27815.47193,22493.56627,-60656.01834,15314.0742,-52568.97838,-0.016,0.096,-0.99,192,0,0,0,0,0,0,0,0,0,0
 2023-06-24 15:06:57.488,-55513.23956,33496.86068,6041.028326,27903.20252,22504.36217,-60261.80062,15325.0042,-52327.26661,-0.016,0.096,-0.99,192,0,0,0,0,0,0,0,0,0,0
 2023-06-24 15:06:57.488,-55450.58762,32392.46099,4924.648097,26865.36632,21397.39202,-59158.74203,14211.73086,-51637.04474,-0.016,0.092,-0.984,192,255,128,2,224,225,64,0,0,0,0
 2023-06-24 15:06:57.488,-55677.45783,31817.01533,4368.894323,26243.20552,20840.00657,-58963.99128,13660.62625,-51518.26757,-0.016,0.092,-0.984,192,0,0,0,0,0,0,0,0,0,0
 2023-06-24 15:06:57.488,-55882.80331,32459.06919,5030.997697,26822.58508,21500.79119,-59866.37591,14324.07073,-52072.61319,-0.016,0.092,-0.984,192,0,0,0,0,0,0,0,0,0,0
 2023-06-24 15:06:57.489,-55792.16698,33456.87341,6024.890366,27816.47775,22491.73343,-60655.07956,15310.94495,-52565.11153,-0.016,0.092,-0.984,192,0,0,0,0,0,0,0,0,0,0
 2023-06-24 15:06:57.489,-55534.42902,33464.40595,6010.518194,27877.16274,22473.74028,-60280.17375,15283.25114,-52339.73889,-0.016,0.092,-0.984,192,0,0,0,0,0,0,0,0,0,0
 2023-06-24 15:06:57.489,-55459.61773,32422.18881,4954.353565,26875.58107,21415.80986,-59169.9179,14224.11373,-51645.20313,-0.016,0.092,-0.984,192,0,0,0,0,0,0,0,0,0,0
 2023-06-24 15:06:57.489,-55681.88348,31829.10762,4381.634817,26253.75554,20843.44874,-58955.47527,13657.4523,-51516.0324,-0.016,0.092,-0.984,192,0,0,0,0,0,0,0,0,0,0
 2023-06-24 15:06:57.489,-55882.78096,32476.41414,5050.622529,26834.81149,21507.98845,-59845.07469,14323.60134,-52062.37609,-0.016,0.092,-0.984,192,0,0,0,0,0,0,0,0,0,0
 2023-06-24 15:06:57.489,-55787.8978,33514.20564,6080.859134,27870.8372,22542.80717,-60642.22731,15352.36273,-52555.14265,-0.016,0.092,-0.984,192,0,0,0,0,0,0,0,0,0,0
 2023-06-24 15:06:57.489,-55527.07529,33543.32996,6085.28478,27949.00125,22546.53991,-60281.69367,15366.28787,-52334.79915,-0.016,0.092,-0.984,192,0,0,0,0,0,0,0,0,0,0
 2023-06-24 15:06:57.489,-55465.33978,32400.55232,4930.303088,26851.17297,21391.46881,-59183.06073,14222.5044,-51650.88047,-0.018,0.094,-0.986,192,255,112,2,240,225,48,0,0,0,0
 2023-06-24 15:06:57.489,-55678.32955,31867.17264,4416.90587,26293.51929,20879.72562,-58949.30618,13690.19761,-51507.27052,-0.018,0.094,-0.986,192,0,0,0,0,0,0,0,0,0,0
 2023-06-24 15:06:57.489,-55877.55065,32534.81925,5105.674875,26900.86089,21561.58794,-59825.9416,14385.42627,-52043.3324,-0.018,0.094,-0.986,192,0,0,0,0,0,0,0,0,0,0
 2023-06-24 15:06:57.489,-55793.6422,33538.59139,6104.864908,27883.22006,22558.76631,-60635.96882,15404.53171,-52545.71021,-0.018,0.094,-0.986,192,0,0,0,0,0,0,0,0,0,0
 2023-06-24 15:06:57.489,-55526.36004,33628.60186,6173.238894,28026.83002,22629.01785,-60284.06296,15476.10199,-52330.84289,-0.018,0.094,-0.986,192,0,0,0,0,0,0,0,0,0,0
 2023-06-24 15:06:57.489,-55453.20278,32530.3489,5061.329014,26999.81207,21528.66382,-59180.1103,14359.54295,-51642.05153,-0.018,0.094,-0.986,192,0,0,0,0,0,0,0,0,0,0
 2023-06-24 15:06:57.489,-55667.93599,31933.73614,4483.692883,26373.71735,20952.77112,-58933.30233,13778.12937,-51491.80311,-0.018,0.094,-0.986,192,0,0,0,0,0,0,0,0,0,0
 2023-06-24 15:06:57.489,-55869.54872,32580.03683,5148.567873,26969.01136,21618.1602,-59801.04176,14435.06949,-52025.22749,-0.018,0.094,-0.986,192,0,0,0,0,0,0,0,0,0,0
 2023-06-24 15:06:57.489,-55796.25735,33544.84988,6114.342047,27917.57469,22578.83818,-60627.3634,15400.95543,-52540.59166,-0.018,0.094,-0.986,192,0,0,0,0,0,0,0,0,0,0
 2023-06-24 15:06:57.489,-55542.85563,33573.30365,6125.674382,27987.08862,22589.70113,-60302.68196,15412.7348,-52344.07512,-0.018,0.094,-0.986,192,0,0,0,0,0,0,0,0,0,0
 2023-06-24 15:06:57.489,-55470.86066,32462.66782,4997.693598,26929.20291,21465.22957,-59203.91491,14288.71027,-51658.72594,-0.016,0.094,-0.99,192,255,128,2,240,225,16,0,0,0,0
 2023-06-24 15:06:57.489,-55690.5783,31815.62952,4368.134364,26243.78666,20826.77434,-58947.78627,13647.84105,-51504.5436,-0.016,0.094,-0.99,192,0,0,0,0,0,0,0,0,0,0
 2023-06-24 15:06:57.489,-55895.92378,32447.37923,5021.989944,26803.67551,21475.24315,-59807.00967,14297.00277,-52032.55886,-0.016,0.094,-0.99,192,0,0,0,0,0,0,0,0,0,0
 2023-06-24 15:06:57.489,-55821.29131,33446.16693,6019.347134,27798.32814,22479.32821,-60637.62285,15290.73897,-52549.4206,-0.016,0.094,-0.99,192,0,0,0,0,0,0,0,0,0,0
 2023-06-24 15:06:57.489,-55560.08882,33542.77117,6095.499527,27946.4755,22555.4359,-60320.85393,15358.80004,-52356.41329,-0.016,0.094,-0.99,192,0,0,0,0,0,0,0,0,0,0
 2023-06-24 15:06:57.489,-55481.09776,32461.46082,4996.374845,26911.47797,21460.60276,-59220.07522,14271.36532,-51668.02426,-0.016,0.094,-0.99,192,0,0,0,0,0,0,0,0,0,0
 2023-06-24 15:06:57.489,-55698.69199,31803.09019,4354.879779,26227.89457,20821.27581,-58945.66285,13637.11222,-51502.68841,-0.016,0.094,-0.99,192,0,0,0,0,0,0,0,0,0,0
 2023-06-24 15:06:57.489,-55902.69636,32455.42585,5028.047267,26812.43739,21490.39763,-59791.81049,14307.77631,-52021.91943,-0.016,0.094,-0.99,192,0,0,0,0,0,0,0,0,0,0
 2023-06-24 15:06:57.489,-55826.2981,33510.04821,6079.607437,27849.51363,22535.72166,-60625.66467,15358.68828,-52540.97164,-0.016,0.094,-0.99,192,0,0,0,0,0,0,0,0,0,0
 2023-06-24 15:06:57.489,-55573.76809,33563.71475,6110.028161,27978.34909,22581.09571,-60329.23583,15391.25477,-52363.81172,-0.016,0.094,-0.99,192,0,0,0,0,0,0,0,0,0,0
 2023-06-24 15:06:57.489,-55488.49618,32497.29067,5033.478741,26959.95891,21499.27127,-59225.43963,14309.69856,-51675.08741,-0.014,0.096,-0.99,192,255,144,3,0,225,16,0,0,0,0
 2023-06-24 15:06:57.489,-55694.66867,31877.18622,4429.735771,26300.98478,20894.8354,-58927.60264,13717.33263,-51493.39008,-0.014,0.096,-0.99,192,0,0,0,0,0,0,0,0,0,0
 2023-06-24 15:06:57.489,-55921.60594,32365.57184,4939.154379,26728.19367,21405.61746,-59783.29447,14221.07389,-52021.94178,-0.014,0.096,-0.99,192,0,0,0,0,0,0,0,0,0,0
 2023-06-24 15:06:57.489,-55855.71299,33392.031,5965.591188,27745.06393,22425.9299,-60632.14667,15222.07442,-52550.64995,-0.014,0.096,-0.99,192,0,0,0,0,0,0,0,0,0,0
 2023-06-24 15:06:57.489,-55596.58922,33524.39803,6073.684224,27933.66795,22534.82759,-60346.69254,15337.1859,-52379.45794,-0.014,0.096,-0.99,192,0,0,0,0,0,0,0,0,0,0
 2023-06-24 15:06:57.489,-55507.80809,32462.53371,4995.7937,26919.70341,21461.72034,-59246.0703,14279.56841,-51693.61701,-0.014,0.096,-0.99,192,0,0,0,0,0,0,0,0,0,0
 2023-06-24 15:06:57.489,-55720.97668,31762.63353,4312.299706,26194.54577,20780.61799,-58942.08657,13603.89752,-51509.55039,-0.014,0.096,-0.99,192,0,0,0,0,0,0,0,0,0,0
 2023-06-24 15:06:57.489,-55933.00532,32356.38527,4924.335173,26730.83117,21391.08883,-59775.00198,14211.82027,-52023.417,-0.014,0.096,-0.99,192,0,0,0,0,0,0,0,0,0,0
 2023-06-24 15:06:57.489,-55863.26788,33426.74326,5995.050787,27779.55267,22452.66258,-60627.22929,15269.10249,-52553.66743,-0.014,0.096,-0.99,192,0,0,0,0,0,0,0,0,0,0
 2023-06-24 15:06:57.489,-55606.6028,33532.9364,6082.379053,27941.87104,22546.13758,-60358.8966,15359.87292,-52395.32767,-0.014,0.096,-0.99,192,0,0,0,0,0,0,0,0,0,0
 2023-06-24 15:06:57.489,-55515.16181,32478.60461,5015.664401,26944.22328,21493.97391,-59258.47551,14314.23596,-51711.43135,-0.014,0.09,-0.986,192,255,144,2,208,225,48,0,0,0,0
 2023-06-24 15:06:57.489,-55717.22158,31836.26018,4392.251896,26275.0791,20871.85781,-58927.24501,13692.25397,-51510.13154,-0.014,0.09,-0.986,192,0,0,0,0,0,0,0,0,0,0
 2023-06-24 15:06:57.489,-55932.87121,32415.93032,4987.478851,26795.45007,21463.01674,-59749.76686,14283.9717,-52018.54432,-0.014,0.09,-0.986,192,0,0,0,0,0,0,0,0,0,0
 2023-06-24 15:06:57.489,-55867.51471,33484.45546,6059.222646,27842.74105,22528.56911,-60610.57724,15353.43562,-52554.78502,-0.014,0.09,-0.986,192,0,0,0,0,0,0,0,0,0,0
 2023-06-24 15:06:57.489,-55611.7437,33576.67876,6132.17874,27996.65517,22605.34735,-60360.03654,15415.88639,-52407.68819,-0.014,0.09,-0.986,192,0,0,0,0,0,0,0,0,0,0
 2023-06-24 15:06:57.489,-55522.82846,32473.24019,5015.15031,26948.67128,21484.54147,-59269.31611,14292.66653,-51730.78796,-0.014,0.09,-0.986,192,0,0,0,0,0,0,0,0,0,0
 2023-06-24 15:06:57.489,-55717.31099,31855.77325,4419.476321,26300.94007,20886.78877,-58916.7844,13699.0042,-51515.16068,-0.014,0.09,-0.986,192,0,0,0,0,0,0,0,0,0,0
 2023-06-24 15:06:57.489,-55932.13361,32428.87198,5013.004543,26810.26927,21477.36656,-59728.84562,14285.84925,-52013.62693,-0.014,0.09,-0.986,192,0,0,0,0,0,0,0,0,0,0
 2023-06-24 15:06:57.489,-55878.2659,33463.0872,6047.152704,27824.7479,22508.13961,-60604.05053,15312.46487,-52557.69075,-0.014,0.09,-0.986,192,0,0,0,0,0,0,0,0,0,0
 2023-06-24 15:06:57.489,-55613.55419,33669.37145,6235.153226,28076.96498,22694.93314,-60358.78484,15507.57325,-52410.34805,-0.014,0.09,-0.986,192,0,0,0,0,0,0,0,0,0,0
 2023-06-24 15:06:57.489,-55513.6419,32616.98426,5162.537713,27091.54363,21634.16405,-59265.15868,14452.14623,-51730.45268,-0.016,0.094,-0.986,192,255,128,2,240,225,48,0,0,0,0
 2023-06-24 15:06:57.489,-55722.63071,31858.9919,4418.671658,26315.26754,20893.539,-58910.61531,13707.58727,-51515.71948,-0.016,0.094,-0.986,192,0,0,0,0,0,0,0,0,0,0
 2023-06-24 15:06:57.489,-55948.78566,32361.28031,4946.172827,26743.01287,21407.89734,-59721.89423,14233.90379,-52015.25861,-0.016,0.094,-0.986,192,0,0,0,0,0,0,0,0,0,0
 2023-06-24 15:06:57.490,-55892.63807,33437.5168,6023.079875,27798.84223,22481.6975,-60600.09427,15306.31814,-52560.55177,-0.016,0.094,-0.986,192,0,0,0,0,0,0,0,0,0,0
 2023-06-24 15:06:57.490,-55631.30148,33609.15585,6174.647054,28018.78339,22631.72241,-60375.23572,15451.04569,-52426.73188,-0.016,0.094,-0.986,192,0,0,0,0,0,0,0,0,0,0
 2023-06-24 15:06:57.490,-55526.40474,32560.88138,5111.37457,27030.47866,21572.38383,-59284.22472,14385.7839,-51749.36226,-0.016,0.094,-0.986,192,0,0,0,0,0,0,0,0,0,0
 2023-06-24 15:06:57.490,-55730.52087,31811.40504,4378.349111,26248.83816,20833.52456,-58912.69403,13658.12286,-51522.82733,-0.016,0.094,-0.986,192,0,0,0,0,0,0,0,0,0,0
 2023-06-24 15:06:57.490,-55956.94404,32302.53992,4886.828945,26674.54948,21341.08798,-59716.50746,14166.26741,-52018.47726,-0.016,0.094,-0.986,192,0,0,0,0,0,0,0,0,0,0
 2023-06-24 15:06:57.490,-55904.77507,33387.56065,5961.970206,27756.41862,22434.42356,-60603.44703,15242.79448,-52571.50412,-0.016,0.094,-0.986,192,0,0,0,0,0,0,0,0,0,0
 2023-06-24 15:06:57.490,-55643.19261,33597.48824,6147.824961,28017.37523,22626.84973,-60389.85376,15443.06611,-52444.94855,-0.016,0.094,-0.986,192,0,0,0,0,0,0,0,0,0,0
 2023-06-24 15:06:57.490,-55531.27742,32597.09121,5130.574719,27063.13456,21605.53147,-59296.87581,14421.0773,-51765.16494,-0.02,0.09,-0.988,192,255,96,2,208,225,32,0,0,0,0
 2023-06-24 15:06:57.490,-55730.52087,31848.1066,4394.330608,26287.90901,20866.49339,-58906.21202,13684.81084,-51525.75541,-0.02,0.09,-0.988,192,0,0,0,0,0,0,0,0,0,0
 2023-06-24 15:06:57.490,-55956.4076,32323.03647,4888.862954,26700.81278,21361.20455,-59696.525,14175.25282,-52012.79992,-0.02,0.09,-0.988,192,0,0,0,0,0,0,0,0,0,0
 2023-06-24 15:06:57.490,-55909.64775,33401.6199,5972.296711,27753.66935,22440.23501,-60588.58312,15250.0588,-52566.40793,-0.02,0.09,-0.988,192,0,0,0,0,0,0,0,0,0,0
 2023-06-24 15:06:57.490,-55652.64739,33607.21124,6162.577112,27997.1022,22624.18987,-60390.16669,15444.7872,-52449.28479,-0.02,0.09,-0.988,192,0,0,0,0,0,0,0,0,0,0
 2023-06-24 15:06:57.490,-55536.39597,32634.84331,5170.114955,27081.53004,21638.45559,-59301.99436,14452.07917,-51772.76454,-0.02,0.09,-0.988,192,0,0,0,0,0,0,0,0,0,0
 2023-06-24 15:06:57.490,-55737.06993,31861.74117,4406.40055,26299.01782,20880.64204,-58898.05363,13694.33268,-51526.56007,-0.02,0.09,-0.988,192,0,0,0,0,0,0,0,0,0,0
 2023-06-24 15:06:57.490,-55961.72732,32353.34544,4918.121388,26735.79326,21394.95568,-59678.5989,14212.24495,-52006.51908,-0.02,0.09,-0.988,192,0,0,0,0,0,0,0,0,0,0
 2023-06-24 15:06:57.490,-55919.08019,33412.77342,5977.616427,27779.44091,22455.03187,-60584.17983,15264.69919,-52568.57605,-0.02,0.09,-0.988,192,0,0,0,0,0,0,0,0,0,0
 2023-06-24 15:06:57.490,-55660.44815,33628.49011,6174.401185,28034.96606,22646.54161,-60401.67784,15464.94847,-52460.75123,-0.02,0.09,-0.988,192,0,0,0,0,0,0,0,0,0,0
 2023-06-24 15:06:57.490,-55550.41052,32561.64134,5095.48248,27018.63224,21567.06411,-59325.30723,14397.83149,-51794.75865,-0.018,0.092,-0.986,192,255,112,2,224,225,48,0,0,0,0
 2023-06-24 15:06:57.490,-55741.54028,31820.90453,4374.258742,26254.78372,20846.98032,-58898.38891,13676.5854,-51535.03138,-0.018,0.092,-0.986,192,0,0,0,0,0,0,0,0,0,0
 2023-06-24 15:06:57.490,-55963.22488,32321.65066,4894.853222,26705.12667,21364.66907,-59665.61254,14186.00401,-52009.51421,-0.018,0.092,-0.986,192,0,0,0,0,0,0,0,0,0,0
 2023-06-24 15:06:57.490,-55917.71673,33432.19709,6009.914697,27794.57304,22478.09887,-60571.037,15299.14323,-52573.40402,-0.018,0.092,-0.986,192,0,0,0,0,0,0,0,0,0,0
 2023-06-24 15:06:57.490,-55664.00208,33654.99927,6214.634325,28066.92905,22686.43948,-60406.30465,15501.29241,-52478.25265,-0.018,0.092,-0.986,192,0,0,0,0,0,0,0,0,0,0
 2023-06-24 15:06:57.490,-55535.79247,32729.63705,5269.22259,27193.17701,21737.45146,-59319.764,14542.93901,-51801.55358,-0.018,0.092,-0.986,192,0,0,0,0,0,0,0,0,0,0
 2023-06-24 15:06:57.490,-55731.5714,31926.91886,4478.551981,26372.77858,20946.0656,-58883.45794,13758.32573,-51534.62905,-0.018,0.092,-0.986,192,0,0,0,0,0,0,0,0,0,0
 2023-06-24 15:06:57.490,-55963.78368,32344.71766,4917.517891,26727.18784,21386.7973,-59648.71462,14221.90091,-52006.29556,-0.018,0.092,-0.986,192,0,0,0,0,0,0,0,0,0,0
 2023-06-24 15:06:57.490,-55935.86635,33363.73369,5937.718563,27715.13494,22404.06989,-60572.55692,15239.62054,-52581.20478,-0.018,0.092,-0.986,192,0,0,0,0,0,0,0,0,0,0
 2023-06-24 15:06:57.490,-55684.11865,33608.21707,6157.503266,28018.29165,22629.93427,-60421.0568,15441.85912,-52494.45766,-0.018,0.092,-0.986,192,0,0,0,0,0,0,0,0,0,0
 2023-06-24 15:06:57.490,-55557.47367,32654.13286,5181.670807,27111.16846,21656.04641,-59344.35092,14477.85073,-51826.98987,-0.022,0.096,-0.986,192,255,80,3,0,225,48,0,0,0,0
 2023-06-24 15:06:57.490,-55745.63065,31874.72753,4418.068161,26298.25786,20894.8354,-58886.87776,13724.39578,-51547.50366,-0.022,0.096,-0.986,192,0,0,0,0,0,0,0,0,0,0
 2023-06-24 15:06:57.490,-55979.31814,32306.98792,4873.216733,26678.41633,21352.08504,-59643.66313,14168.34613,-52015.52683,-0.022,0.096,-0.986,192,0,0,0,0,0,0,0,0,0,0
 2023-06-24 15:06:57.490,-55954.30654,33333.24591,5898.111272,27692.31381,22374.45383,-60576.40142,15183.83058,-52598.48268,-0.022,0.096,-0.986,192,0,0,0,0,0,0,0,0,0,0
 2023-06-24 15:06:57.490,-55700.74835,33614.00618,6158.822019,28016.10118,22636.41627,-60437.64179,15440.69683,-52518.93282,-0.022,0.096,-0.986,192,0,0,0,0,0,0,0,0,0,0
 2023-06-24 15:06:57.490,-55575.13154,32638.66545,5163.610597,27091.92361,21642.76947,-59368.66961,14455.74486,-51856.11419,-0.022,0.096,-0.986,192,0,0,0,0,0,0,0,0,0,0
 2023-06-24 15:06:57.490,-55765.90368,31827.36419,4368.179067,26263.43385,20847.15913,-58897.24897,13661.11799,-51567.39671,-0.022,0.096,-0.986,192,0,0,0,0,0,0,0,0,0,0
 2023-06-24 15:06:57.490,-55998.45123,32263.11144,4823.97584,26637.19972,21304.1629,-59640.28801,14103.74959,-52024.78046,-0.022,0.096,-0.986,192,0,0,0,0,0,0,0,0,0,0
 2023-06-24 15:06:57.490,-55969.34926,33341.69487,5902.738083,27693.36435,22381.33816,-60573.31688,15184.97052,-52605.65759,-0.022,0.096,-0.986,192,0,0,0,0,0,0,0,0,0,0
 2023-06-24 15:06:57.490,-55722.87658,33587.54171,6133.005754,27978.72907,22606.53199,-60453.7127,15419.99911,-52539.40702,-0.022,0.096,-0.986,192,0,0,0,0,0,0,0,0,0,0
 2023-06-24 15:06:57.490,-55590.59895,32640.45359,5170.137306,27082.2453,21643.66354,-59385.52283,14472.82159,-51877.88479,-0.022,0.096,-0.986,192,0,0,0,0,0,0,0,0,0,0
 2023-06-24 15:06:57.490,-55774.50911,31841.04345,4385.412262,26284.28802,20865.55461,-58896.75723,13694.42209,-51578.1926,-0.02,0.096,-0.986,192,255,96,3,0,225,48,0,0,0,0
 2023-06-24 15:06:57.490,-56017.78549,32197.10674,4766.196581,26577.92289,21241.22038,-59635.92942,14073.1724,-52036.47042,-0.02,0.096,-0.986,192,0,0,0,0,0,0,0,0,0,0
 2023-06-24 15:06:57.490,-55984.43669,33344.26532,5920.999458,27691.41974,22388.35661,-60565.98551,15210.49621,-52613.92774,-0.02,0.096,-0.986,192,0,0,0,0,0,0,0,0,0,0
 2023-06-24 15:06:57.490,-55728.82214,33660.36369,6217.830624,28059.88825,22685.63481,-60451.56693,15491.88232,-52548.14655,-0.02,0.096,-0.986,192,0,0,0,0,0,0,0,0,0,0
 2023-06-24 15:06:57.490,-55600.97016,32652.18826,5188.353978,27111.57079,21661.0979,-59395.37995,14478.6554,-51894.98388,-0.02,0.096,-0.986,192,0,0,0,0,0,0,0,0,0,0
 2023-06-24 15:06:57.490,-55784.50033,31816.52359,4369.631931,26263.90323,20844.58868,-58892.42099,13669.5893,-51586.28393,-0.02,0.096,-0.986,192,0,0,0,0,0,0,0,0,0,0
 2023-06-24 15:06:57.490,-56011.66111,32285.77611,4862.912579,26658.16565,21323.87713,-59604.97226,14152.40933,-52025.13808,-0.02,0.096,-0.986,192,0,0,0,0,0,0,0,0,0,0
 2023-06-24 15:06:57.490,-55997.75833,33311.3412,5889.908181,27665.33526,22353.48789,-60554.54142,15177.19211,-52620.76737,-0.02,0.096,-0.986,192,0,0,0,0,0,0,0,0,0,0
 2023-06-24 15:06:57.490,-55748.49167,33625.94201,6183.18542,28037.08947,22659.63974,-60462.98867,15464.63555,-52570.45359,-0.02,0.096,-0.986,192,0,0,0,0,0,0,0,0,0,0
 2023-06-24 15:06:57.490,-55608.16742,32707.1959,5242.176979,27188.72901,21728.73428,-59407.13697,14543.56486,-51915.59218,-0.02,0.096,-0.986,192,0,0,0,0,0,0,0,0,0,0
 2023-06-24 15:06:57.974,-55785.19324,31880.94132,4430.540434,26335.22765,20910.97336,-58885.80488,13735.39284,-51595.40344,-0.02,0.092,-0.984,192,255,96,2,224,225,64,0,0,0,0
 2023-06-24 15:06:57.974,-56010.90115,32346.32699,4913.271059,26726.76316,21384.40566,-59584.00632,14213.45195,-52023.55111,-0.02,0.092,-0.984,192,0,0,0,0,0,0,0,0,0,0
 2023-06-24 15:06:57.974,-55998.40653,33385.21372,5952.224845,27740.43712,22425.61697,-60537.7329,15249.70117,-52618.93453,-0.02,0.092,-0.984,192,0,0,0,0,0,0,0,0,0,0
 2023-06-24 15:06:57.974,-55758.52761,33661.30247,6211.549784,28043.59383,22681.25387,-60466.02851,15503.23701,-52582.65765,-0.02,0.092,-0.984,192,0,0,0,0,0,0,0,0,0,0
 2023-06-24 15:06:57.974,-55623.03133,32704.02196,5237.661926,27142.55031,21706.44959,-59422.17969,14519.62614,-51936.71458,-0.02,0.092,-0.984,192,0,0,0,0,0,0,0,0,0,0
 2023-06-24 15:06:57.974,-55796.74909,31891.75956,4437.558882,26327.6057,20912.47093,-58884.48613,13725.15574,-51604.70177,-0.02,0.092,-0.984,192,0,0,0,0,0,0,0,0,0,0
 2023-06-24 15:06:57.974,-56036.80683,32254.57308,4820.757189,26630.44949,21292.74115,-59582.46405,14124.4473,-52035.5987,-0.02,0.092,-0.984,192,0,0,0,0,0,0,0,0,0,0
 2023-06-24 15:06:57.974,-56027.35204,33295.69498,5864.069565,27643.65407,22332.20903,-60542.65029,15159.10955,-52634.42429,-0.02,0.092,-0.984,192,0,0,0,0,0,0,0,0,0,0
 2023-06-24 15:06:57.974,-55777.68305,33660.92249,6211.639191,28051.50635,22681.41033,-60478.27726,15494.7657,-52598.72855,-0.02,0.092,-0.984,192,0,0,0,0,0,0,0,0,0,0
 2023-06-24 15:06:57.974,-55631.27913,32757.86731,5291.596686,27200.68719,21761.85957,-59434.83078,14574.92436,-51951.13146,-0.02,0.092,-0.984,192,0,0,0,0,0,0,0,0,0,0
 2023-06-24 15:06:57.975,-55801.71118,31910.66914,4459.128315,26328.54448,20920.69637,-58882.40741,13740.19846,-51609.19447,-0.018,0.094,-0.992,192,255,112,2,240,225,0,0,0,0,0
 2023-06-24 15:06:57.975,-56038.81848,32287.72071,4857.54816,26653.74001,21323.74302,-59563.19685,14143.49099,-52029.2508,-0.018,0.094,-0.992,192,0,0,0,0,0,0,0,0,0,0
 2023-06-24 15:06:57.975,-56027.48615,33370.01453,5940.937214,27727.24959,22418.79969,-60520.29854,15224.98014,-52625.88592,-0.018,0.094,-0.992,192,0,0,0,0,0,0,0,0,0,0
 2023-06-24 15:06:57.975,-55783.85213,33718.67939,6269.15023,28119.94739,22744.59872,-60472.66698,15550.08627,-52604.47295,-0.018,0.094,-0.992,192,0,0,0,0,0,0,0,0,0,0
 2023-06-24 15:06:57.975,-55633.98369,32833.68442,5367.234989,27298.8337,21845.4998,-59434.33904,14659.07868,-51962.5532,-0.018,0.094,-0.992,192,0,0,0,0,0,0,0,0,0,0
 2023-06-24 15:06:57.975,-55808.48376,31923.29787,4474.171039,26372.4433,20950.08891,-58872.39383,13766.08178,-51617.39756,-0.018,0.094,-0.992,192,0,0,0,0,0,0,0,0,0,0
 2023-06-24 15:06:57.975,-56045.83693,32295.14149,4869.998082,26682.17143,21345.64773,-59540.1522,14157.01379,-52029.63078,-0.018,0.094,-0.992,192,0,0,0,0,0,0,0,0,0,0
 2023-06-24 15:06:57.975,-56041.88067,33345.51702,5925.872138,27690.65978,22393.07283,-60507.04396,15216.48648,-52633.50786,-0.018,0.094,-0.992,192,0,0,0,0,0,0,0,0,0,0
 2023-06-24 15:06:57.975,-55806.24858,33659.2014,6217.540052,28049.04765,22685.76892,-60482.03236,15510.52368,-52626.2659,-0.018,0.094,-0.992,192,0,0,0,0,0,0,0,0,0,0
 2023-06-24 15:06:57.975,-55661.0293,32754.76041,5294.72593,27208.39855,21766.48638,-59458.56833,14579.9535,-51993.10803,-0.018,0.094,-0.992,192,0,0,0,0,0,0,0,0,0,0
 2023-06-24 15:06:57.975,-55827.97448,31882.52829,4435.748391,26329.4162,20907.28532,-58877.89236,13718.09259,-51632.88732,-0.02,0.092,-0.992,192,255,96,2,224,225,0,0,0,0,0
 2023-06-24 15:06:57.975,-56072.50256,32209.89194,4782.915686,26601.34752,21255.63726,-59541.33684,14064.61168,-52042.14776,-0.02,0.092,-0.992,192,0,0,0,0,0,0,0,0,0,0
 2023-06-24 15:06:57.975,-56074.98361,33258.90401,5838.052134,27619.80475,22307.82328,-60516.02936,15123.43617,-52650.76341,-0.02,0.092,-0.992,192,0,0,0,0,0,0,0,0,0,0
 2023-06-24 15:06:57.975,-55834.23297,33647.98083,6212.689723,28041.06808,22681.45504,-60496.76216,15500.19717,-52645.26488,-0.02,0.092,-0.992,192,0,0,0,0,0,0,0,0,0,0
 2023-06-24 15:06:57.975,-55685.61622,32759.76721,5306.728817,27207.68329,21774.95769,-59474.99686,14597.45492,-52012.97873,-0.02,0.092,-0.992,192,0,0,0,0,0,0,0,0,0,0
 2023-06-24 15:06:57.975,-55847.35344,31875.6216,4434.608452,26307.82441,20897.56231,-58877.89236,13725.89335,-51642.52092,-0.02,0.092,-0.992,192,0,0,0,0,0,0,0,0,0,0
 2023-06-24 15:06:57.975,-56096.64245,32144.40133,4722.901252,26518.5343,21183.28466,-59533.17845,14011.6604,-52047.1769,-0.02,0.092,-0.992,192,0,0,0,0,0,0,0,0,0,0
 2023-06-24 15:06:57.975,-56105.40433,33172.71568,5753.808409,27521.83706,22215.44352,-60516.00701,15027.18956,-52661.67106,-0.02,0.092,-0.992,192,0,0,0,0,0,0,0,0,0,0
 2023-06-24 15:06:57.975,-55859.15516,33631.39583,6194.696569,28016.63763,22654.40943,-60508.67564,15469.77645,-52661.82752,-0.02,0.092,-0.992,192,0,0,0,0,0,0,0,0,0,0
 2023-06-24 15:06:57.975,-55697.64146,32827.29183,5366.631492,27274.98439,21833.60867,-59486.66447,14655.21182,-52026.99328,-0.02,0.092,-0.992,192,0,0,0,0,0,0,0,0,0,0
 2023-06-24 15:06:57.975,-55854.86363,31939.32407,4487.336217,26381.62987,20951.96646,-58871.27624,13763.86896,-51646.00779,-0.018,0.09,-0.994,192,255,112,2,208,224,240,0,0,0,0
 2023-06-24 15:06:57.975,-56101.91746,32206.65094,4779.51822,26583.1532,21238.13584,-59509.97734,14056.76622,-52041.32075,-0.018,0.09,-0.994,192,0,0,0,0,0,0,0,0,0,0
 2023-06-24 15:06:57.975,-56103.41502,33303.16047,5881.213353,27650.62781,22342.0438,-60487.95557,15155.86855,-52649.60112,-0.018,0.09,-0.994,192,0,0,0,0,0,0,0,0,0,0
 2023-06-24 15:06:57.975,-55862.35146,33721.11573,6280.147288,28101.35074,22738.27317,-60499.71259,15559.56341,-52663.77213,-0.018,0.09,-0.994,192,0,0,0,0,0,0,0,0,0,0
 2023-06-24 15:06:57.975,-55702.38003,32870.14012,5410.932649,27302.85702,21869.77379,-59492.7218,14701.70345,-52039.37614,-0.018,0.09,-0.994,192,0,0,0,0,0,0,0,0,0,0
 2023-06-24 15:06:57.975,-55858.03757,31936.79833,4484.274028,26377.91948,20949.97715,-58866.8059,13777.2353,-51652.15452,-0.018,0.09,-0.994,192,0,0,0,0,0,0,0,0,0,0
 2023-06-24 15:06:57.975,-56094.7649,32256.38357,4825.428703,26634.69632,21284.51571,-59485.34572,14120.40164,-52033.16236,-0.018,0.09,-0.994,192,0,0,0,0,0,0,0,0,0,0
 2023-06-24 15:06:57.975,-56106.92425,33296.03026,5872.876152,27639.42959,22329.68328,-60474.99156,15152.38168,-52649.3329,-0.018,0.09,-0.994,192,0,0,0,0,0,0,0,0,0,0
 2023-06-24 15:06:57.975,-55873.84026,33682.02253,6243.065744,28062.83868,22700.58813,-60511.24609,15517.1845,-52676.11029,-0.018,0.09,-0.994,192,0,0,0,0,0,0,0,0,0,0
 2023-06-24 15:06:57.975,-55718.02625,32785.49406,5320.631602,27227.39753,21782.26671,-59519.7227,14599.91361,-52063.00194,-0.018,0.09,-0.994,192,0,0,0,0,0,0,0,0,0,0
 2023-06-24 15:06:57.975,-55867.11238,31868.31258,4411.921431,26299.91189,20872.90834,-58878.49586,13685.32493,-51665.11854,-0.018,0.09,-0.986,192,255,112,2,208,225,48,0,0,0,0
 2023-06-24 15:06:57.975,-56106.87955,32157.99119,4723.504749,26526.7374,21182.59176,-59485.63629,14002.7644,-52037.56565,-0.018,0.09,-0.986,192,0,0,0,0,0,0,0,0,0,0
 2023-06-24 15:06:57.975,-56117.98836,33230.02556,5802.199936,27554.93999,22261.80104,-60474.29865,15094.08833,-52650.13756,-0.018,0.09,-0.986,192,0,0,0,0,0,0,0,0,0,0
 2023-06-24 15:06:57.975,-55870.68866,33725.40727,6278.359148,28111.20786,22747.79502,-60512.60954,15559.18343,-52676.46792,-0.018,0.09,-0.986,192,0,0,0,0,0,0,0,0,0,0
 2023-06-24 15:06:57.975,-55709.64434,32864.50748,5398.25921,27315.12813,21869.3044,-59523.74602,14682.48095,-52063.38192,-0.018,0.09,-0.986,192,0,0,0,0,0,0,0,0,0,0
 2023-06-24 15:06:57.976,-55865.36895,31880.78485,4427.232376,26316.78746,20892.80139,-58875.52308,13712.61641,-51661.85518,-0.018,0.09,-0.986,192,0,0,0,0,0,0,0,0,0,0
 2023-06-24 15:06:57.976,-56109.45,32149.43047,4720.330801,26520.81418,21180.15542,-59471.5994,14002.20561,-52028.31203,-0.018,0.09,-0.986,192,0,0,0,0,0,0,0,0,0,0
 2023-06-24 15:06:57.976,-56131.17589,33185.88086,5757.876427,27530.04015,22221.38908,-60468.55425,15039.03598,-52646.7401,-0.018,0.09,-0.986,192,0,0,0,0,0,0,0,0,0,0
 2023-06-24 15:06:57.976,-55887.07249,33703.97195,6255.3145,28076.71911,22717.06137,-60519.82916,15540.67618,-52681.54176,-0.018,0.09,-0.986,192,0,0,0,0,0,0,0,0,0,0
 2023-06-24 15:06:57.976,-55712.55007,32929.4393,5457.938368,27369.8899,21925.69785,-59526.20471,14754.56533,-52064.72302,-0.018,0.09,-0.986,192,0,0,0,0,0,0,0,0,0,0
 2023-06-24 15:06:57.976,-55856.4059,31996.36573,4536.308889,26429.95434,21001.56498,-58853.05957,13830.16423,-51646.18661,-0.022,0.09,-0.986,192,255,80,2,208,225,48,0,0,0,0
 2023-06-24 15:06:57.976,-56107.84067,32205.5557,4770.868095,26571.73146,21224.14365,-59440.01638,14047.75847,-52009.9836,-0.022,0.09,-0.986,192,0,0,0,0,0,0,0,0,0,0
 2023-06-24 15:06:57.976,-56125.23033,33299.04774,5869.813963,27631.69588,22321.07786,-60431.87504,15138.63535,-52625.88592,-0.022,0.09,-0.986,192,0,0,0,0,0,0,0,0,0,0
 2023-06-24 15:06:57.976,-55890.80523,33759.98542,6310.970343,28140.46629,22763.30713,-60509.34619,15566.17952,-52678.189,-0.022,0.09,-0.986,192,0,0,0,0,0,0,0,0,0,0
 2023-06-24 15:06:57.976,-55723.43537,32937.8212,5467.907246,27375.92487,21925.29552,-59533.87136,14744.84232,-52074.02135,-0.022,0.09,-0.986,192,0,0,0,0,0,0,0,0,0,0
 2023-06-24 15:06:57.976,-55862.17265,32006.71458,4544.959014,26440.68318,21013.67963,-58847.0246,13847.84446,-51646.41013,-0.022,0.09,-0.986,192,0,0,0,0,0,0,0,0,0,0
 2023-06-24 15:06:57.976,-56116.20022,32173.07862,4734.859435,26542.45067,21200.42845,-59425.48775,14040.44945,-52004.93211,-0.022,0.09,-0.986,192,0,0,0,0,0,0,0,0,0,0
 2023-06-24 15:06:57.976,-56145.05632,33206.75739,5777.791831,27549.73204,22240.61158,-60428.0976,15060.06897,-52628.9034,-0.022,0.09,-0.986,192,0,0,0,0,0,0,0,0,0,0
 2023-06-24 15:06:57.976,-55912.2182,33694.85243,6247.267872,28089.34785,22714.75914,-60518.4657,15525.49935,-52689.45428,-0.022,0.09,-0.986,192,0,0,0,0,0,0,0,0,0,0
 2023-06-24 15:06:57.976,-55731.45965,32971.66174,5503.513575,27411.41944,21965.08163,-59540.44277,14781.67799,-52083.16321,-0.022,0.09,-0.986,192,0,0,0,0,0,0,0,0,0,0
 2023-06-24 15:06:57.976,-55870.28633,32010.11205,4553.74325,26435.96696,21006.25885,-58842.88953,13835.88628,-51649.31585,-0.02,0.092,-0.984,192,255,96,2,224,225,64,0,0,0,0
 2023-06-24 15:06:57.976,-56119.50828,32210.38368,4773.952636,26584.00256,21232.83848,-59405.12531,14055.17924,-51993.51036,-0.02,0.092,-0.984,192,0,0,0,0,0,0,0,0,0,0
 2023-06-24 15:06:57.976,-56159.40614,33182.01401,5754.680127,27530.39778,22217.1646,-60420.38625,15037.94075,-52624.29894,-0.02,0.092,-0.984,192,0,0,0,0,0,0,0,0,0,0
 2023-06-24 15:06:57.976,-55923.99757,33701.69207,6258.555503,28074.46159,22718.64834,-60524.70184,15539.75976,-52694.88575,-0.02,0.092,-0.984,192,0,0,0,0,0,0,0,0,0,0
 2023-06-24 15:06:57.976,-55744.93775,32954.07092,5489.789604,27384.10561,21949.03308,-59557.38539,14773.20668,-52097.08835,-0.02,0.092,-0.984,192,0,0,0,0,0,0,0,0,0,0
 2023-06-24 15:06:57.976,-55886.71486,31943.23563,4485.816298,26377.36069,20956.79444,-58850.28796,13782.62207,-51655.10495,-0.02,0.092,-0.984,192,0,0,0,0,0,0,0,0,0,0
 2023-06-24 15:06:57.976,-56129.67832,32182.08637,4747.376412,26556.19699,21217.32637,-59389.6132,14036.18026,-51984.972,-0.02,0.092,-0.984,192,0,0,0,0,0,0,0,0,0,0
 2023-06-24 15:06:57.976,-56168.72682,33198.44254,5771.958026,27541.12661,22236.43181,-60400.47084,15052.06705,-52614.15125,-0.02,0.092,-0.984,192,0,0,0,0,0,0,0,0,0,0
 2023-06-24 15:06:57.976,-55939.19676,33704.93307,6259.226055,28084.51987,22725.06329,-60524.59008,15540.27385,-52696.13745,-0.02,0.092,-0.984,192,0,0,0,0,0,0,0,0,0,0
 2023-06-24 15:06:57.976,-55759.0864,32961.02231,5493.857621,27402.34463,21964.85811,-59569.27652,14780.38159,-52106.52078,-0.02,0.092,-0.984,192,0,0,0,0,0,0,0,0,0,0
 2023-06-24 15:06:57.976,-55897.80133,31932.79736,4475.512144,26373.51619,20945.61856,-58849.25978,13762.39374,-51661.31874,-0.018,0.092,-0.986,192,255,112,2,224,225,48,0,0,0,0
 2023-06-24 15:06:57.976,-56142.41882,32128.59865,4698.247278,26491.84632,21150.24878,-59380.27017,13977.61869,-51987.65421,-0.018,0.092,-0.986,192,0,0,0,0,0,0,0,0,0,0
 2023-06-24 15:06:57.976,-56177.77928,33169.94407,5745.761781,27506.81669,22204.20059,-60391.15016,15027.54718,-52614.91121,-0.018,0.092,-0.986,192,0,0,0,0,0,0,0,0,0,0
 2023-06-24 15:06:57.976,-55947.04222,33679.04975,6234.102694,28071.91349,22709.68529,-60530.22272,15512.49063,-52706.32985,-0.018,0.092,-0.986,192,0,0,0,0,0,0,0,0,0,0
 2023-06-24 15:06:57.976,-55762.21565,32940.59282,5475.439784,27389.13475,21949.10013,-59586.75558,14756.59934,-52122.54699,-0.018,0.092,-0.986,192,0,0,0,0,0,0,0,0,0,0
 2023-06-24 15:06:57.976,-55889.35237,31944.88966,4486.911534,26380.46758,20953.7993,-58850.33266,13767.69111,-51661.96694,-0.018,0.092,-0.986,192,0,0,0,0,0,0,0,0,0,0
 2023-06-24 15:06:57.976,-56129.63362,32146.01065,4705.668057,26519.58484,21169.76186,-59366.18857,13990.22508,-51978.91468,-0.018,0.092,-0.986,192,0,0,0,0,0,0,0,0,0,0
 2023-06-24 15:06:57.976,-56171.54314,33176.24726,5740.330308,27517.8808,22208.55918,-60381.76243,15030.34115,-52612.54193,-0.018,0.092,-0.986,192,0,0,0,0,0,0,0,0,0,0
 2023-06-24 15:06:57.976,-55941.27547,33698.60753,6245.345622,28071.46645,22713.30627,-60534.31309,15527.06397,-52713.61652,-0.018,0.092,-0.986,192,0,0,0,0,0,0,0,0,0,0
 2023-06-24 15:06:57.976,-55749.51985,32978.59078,5505.88286,27415.3757,21974.11173,-59595.51747,14782.72853,-52133.43229,-0.018,0.092,-0.986,192,0,0,0,0,0,0,0,0,0,0
 2023-06-24 15:06:57.976,-55871.69449,31965.14034,4501.239002,26401.34411,20968.79732,-58846.46581,13791.9204,-51667.53252,-0.02,0.094,-0.984,192,255,96,2,240,225,64,0,0,0,0
 2023-06-24 15:06:57.976,-56156.3216,33158.74584,5725.913432,27493.5621,22186.81093,-60365.69153,14998.19934,-52604.38354,-0.02,0.094,-0.984,192,0,0,0,0,0,0,0,0,0,0
 2023-06-24 15:06:57.976,-55736.80171,33001.54603,5528.614584,27437.07924,21998.09515,-59600.94894,14813.01514,-52134.03578,-0.02,0.094,-0.984,192,0,0,0,0,0,0,0,0,0,0
 2023-06-24 15:06:57.976,-55861.50209,31928.34937,4458.234246,26368.37529,20936.40964,-58845.14705,13755.12943,-51665.81144,-0.02,0.094,-0.984,192,0,0,0,0,0,0,0,0,0,0
 2023-06-24 15:06:57.976,-56102.99034,32078.48603,4632.622556,26456.73173,21101.7902,-59338.85239,13908.5071,-51971.29273,-0.02,0.094,-0.984,192,0,0,0,0,0,0,0,0,0,0
 2023-06-24 15:06:57.976,-56157.77447,33044.86371,5609.41614,27384.37383,22073.91227,-60360.86355,14892.00621,-52605.97051,-0.02,0.094,-0.984,192,0,0,0,0,0,0,0,0,0,0
 2023-06-24 15:06:57.976,-55933.36295,33615.74961,6163.493534,27990.37433,22638.31617,-60540.99626,15457.28182,-52719.67384,-0.02,0.094,-0.984,192,0,0,0,0,0,0,0,0,0,0
 2023-06-24 15:06:57.976,-55726.81048,32988.29144,5513.750674,27429.23378,21990.3391,-59609.71083,14804.76735,-52142.01535,-0.02,0.094,-0.984,192,0,0,0,0,0,0,0,0,0,0
 2023-06-24 15:06:57.976,-55844.9171,31925.26483,4457.407231,26367.3024,20930.19586,-58838.62035,13751.66491,-51660.33526,-0.026,0.094,-0.984,192,255,48,2,240,225,64,0,0,0,0
 2023-06-24 15:06:57.976,-56088.86404,32045.71838,4602.358294,26426.93686,21067.97201,-59324.12259,13886.42357,-51957.54641,-0.026,0.094,-0.984,192,0,0,0,0,0,0,0,0,0,0
 2023-06-24 15:06:57.976,-56141.88238,33017.12519,5585.231553,27356.74707,22042.48572,-60348.32422,14872.24726,-52593.49824,-0.026,0.094,-0.984,192,0,0,0,0,0,0,0,0,0,0
 2023-06-24 15:06:57.976,-55923.88581,33544.06757,6094.046664,27908.634,22558.69926,-60551.36747,15399.61432,-52724.12184,-0.026,0.094,-0.984,192,0,0,0,0,0,0,0,0,0,0
 2023-06-24 15:06:57.977,-55731.30318,32810.70683,5336.166064,27249.79398,21811.01105,-59649.29577,14629.39556,-52168.32336,-0.026,0.094,-0.984,192,0,0,0,0,0,0,0,0,0,0
 2023-06-24 15:06:57.977,-55836.08816,31829.39819,4358.9925,26283.23749,20838.44195,-58859.22865,13644.71181,-51670.61706,-0.026,0.094,-0.984,192,0,0,0,0,0,0,0,0,0,0
 2023-06-24 15:06:57.977,-56071.38497,32011.02847,4568.808325,26400.85237,21033.68444,-59319.58518,13848.42561,-51949.23156,-0.026,0.094,-0.984,192,0,0,0,0,0,0,0,0,0,0
 2023-06-24 15:06:57.977,-56117.27311,33057.85007,5629.599765,27401.58467,22090.43021,-60333.30385,14908.09946,-52574.54396,-0.026,0.094,-0.984,192,0,0,0,0,0,0,0,0,0,0
 2023-06-24 15:06:57.977,-55897.33194,33614.72143,6171.942493,27981.1207,22630.04603,-60544.14785,15446.44123,-52708.05093,-0.026,0.094,-0.984,192,0,0,0,0,0,0,0,0,0,0
 2023-06-24 15:06:57.977,-55693.6852,32965.71618,5502.127767,27386.11727,21957.57144,-59639.68451,14786.59538,-52148.9444,-0.026,0.094,-0.984,192,0,0,0,0,0,0,0,0,0,0
 2023-06-24 15:06:57.977,-55803.85695,31925.5554,4465.118583,26357.80291,20926.61958,-58839.76028,13762.32669,-51645.98544,-0.024,0.098,-0.984,192,255,64,3,16,225,64,0,0,0,0
 2023-06-24 15:06:57.977,-56049.9273,32038.92345,4599.497271,26421.28186,21066.65326,-59293.36659,13893.75495,-51921.89538,-0.024,0.098,-0.984,192,0,0,0,0,0,0,0,0,0,0
 2023-06-24 15:06:57.977,-56110.1876,33044.14845,5612.970068,27384.99968,22076.70624,-60316.07065,14900.70103,-52553.51097,-0.024,0.098,-0.984,192,0,0,0,0,0,0,0,0,0,0
 2023-06-24 15:06:57.977,-55902.45049,33584.8595,6134.972708,27945.24615,22593.99266,-60547.50062,15419.2168,-52699.69138,-0.024,0.098,-0.984,192,0,0,0,0,0,0,0,0,0,0
 2023-06-24 15:06:57.977,-55706.62686,32925.08071,5452.484542,27341.99492,21916.42188,-59659.91284,14747.39042,-52151.29133,-0.024,0.098,-0.984,192,0,0,0,0,0,0,0,0,0,0
 2023-06-24 15:06:57.977,-55816.17276,31886.30574,4420.705667,26319.69319,20894.45542,-58848.03043,13729.40257,-51640.73278,-0.024,0.098,-0.984,192,0,0,0,0,0,0,0,0,0,0
 2023-06-24 15:06:57.977,-56070.84853,31963.08398,4512.571336,26357.53469,20995.17238,-59291.91372,13813.19926,-51909.49016,-0.024,0.098,-0.984,192,0,0,0,0,0,0,0,0,0,0
 2023-06-24 15:06:57.977,-56139.91542,32955.92612,5515.807034,27301.31475,21991.21082,-60315.10953,14804.02974,-52541.0387,-0.024,0.098,-0.984,192,0,0,0,0,0,0,0,0,0,0
 2023-06-24 15:06:57.977,-55926.56802,33584.79245,6132.446961,27939.94879,22597.41248,-60547.05358,15412.46658,-52686.59326,-0.024,0.098,-0.984,192,0,0,0,0,0,0,0,0,0,0
 2023-06-24 15:06:57.977,-55732.53253,32909.68036,5437.285356,27326.08048,21901.22269,-59671.20047,14713.99691,-52147.31272,-0.024,0.098,-0.984,192,0,0,0,0,0,0,0,0,0,0
 2023-06-24 15:06:57.977,-55846.07939,31838.65182,4373.096451,26262.60683,20838.55371,-58850.2656,13647.37167,-51631.54622,-0.02,0.092,-0.986,192,255,96,2,224,225,48,0,0,0,0
 2023-06-24 15:06:57.977,-56096.64245,31952.22103,4509.442092,26327.96333,20977.87213,-59274.3676,13796.05547,-51889.28418,-0.02,0.092,-0.986,192,0,0,0,0,0,0,0,0,0,0
 2023-06-24 15:06:57.977,-56178.6957,32906.26054,5472.735223,27262.10979,21950.15066,-60303.62073,14768.04343,-52525.57129,-0.02,0.092,-0.986,192,0,0,0,0,0,0,0,0,0,0
 2023-06-24 15:06:57.977,-55976.61358,33551.48835,6106.474233,27928.05766,22579.03934,-60551.36747,15390.53951,-52676.64673,-0.02,0.092,-0.986,192,0,0,0,0,0,0,0,0,0,0
 2023-06-24 15:06:57.977,-55784.63445,32920.11862,5453.35626,27347.31464,21922.23333,-59685.79616,14735.81222,-52138.84141,-0.02,0.092,-0.986,192,0,0,0,0,0,0,0,0,0,0
 2023-06-24 15:06:57.977,-55901.64583,31843.18922,4383.288846,26269.98291,20847.27089,-58852.79135,13660.06746,-51615.63177,-0.02,0.092,-0.986,192,0,0,0,0,0,0,0,0,0,0
 2023-06-24 15:06:57.977,-56158.62383,31938.80998,4502.155423,26319.42497,20965.62337,-59260.8895,13767.73581,-51864.04906,-0.02,0.092,-0.986,192,0,0,0,0,0,0,0,0,0,0
 2023-06-24 15:06:57.977,-56242.55463,32921.97382,5492.024778,27264.30026,21954.41985,-60289.22621,14753.80537,-52500.35852,-0.02,0.092,-0.986,192,0,0,0,0,0,0,0,0,0,0
 2023-06-24 15:06:57.977,-56046.64159,33540.33483,6092.370283,27906.93526,22556.53114,-60557.62596,15368.67951,-52668.98008,-0.02,0.092,-0.986,192,0,0,0,0,0,0,0,0,0,0
 2023-06-24 15:06:57.977,-55847.4205,32948.19241,5481.944142,27377.80242,21947.04377,-59700.63772,14760.46619,-52138.93081,-0.02,0.092,-0.986,192,0,0,0,0,0,0,0,0,0,0
 2023-06-24 15:06:57.977,-55964.87891,31826.06778,4367.150887,26271.48047,20833.25634,-58860.56976,13649.56214,-51611.34024,-0.014,0.09,-0.99,192,255,144,2,208,225,16,0,0,0,0
 2023-06-24 15:06:57.977,-56224.53913,31894.53118,4456.691975,26281.04702,20926.8431,-59256.37445,13742.85832,-51850.28039,-0.014,0.09,-0.99,192,0,0,0,0,0,0,0,0,0,0
 2023-06-24 15:06:58.456,-56303.73136,32934.15552,5502.083063,27275.85611,21974.40231,-60278.13974,14786.59538,-52480.97956,-0.014,0.09,-0.99,192,0,0,0,0,0,0,0,0,0,0
 2023-06-24 15:06:58.456,-56106.09723,33578.55631,6129.518882,27949.20241,22601.27933,-60557.84947,15411.93013,-52658.58652,-0.014,0.09,-0.99,192,0,0,0,0,0,0,0,0,0,0
 2023-06-24 15:06:58.456,-55909.5807,32982.97173,5513.236584,27405.40682,21982.33717,-59713.71349,14797.86066,-52138.64024,-0.014,0.09,-0.99,192,0,0,0,0,0,0,0,0,0,0
 2023-06-24 15:06:58.456,-56012.93516,31930.38338,4464.626844,26372.10803,20938.75658,-58851.98669,13750.14499,-51597.25864,-0.014,0.09,-0.99,192,0,0,0,0,0,0,0,0,0,0
 2023-06-24 15:06:58.456,-56285.7382,31867.06088,4424.840739,26263.14327,20903.15025,-59247.92549,13711.8788,-51841.25028,-0.014,0.09,-0.99,192,0,0,0,0,0,0,0,0,0,0
 2023-06-24 15:06:58.456,-56365.28806,32919.67159,5492.471813,27260.05343,21967.09328,-60269.66843,14773.69842,-52473.06704,-0.014,0.09,-0.99,192,0,0,0,0,0,0,0,0,0,0
 2023-06-24 15:06:58.456,-56165.73169,33623.97505,6176.591656,27989.25674,22653.4036,-60558.60943,15456.94655,-52654.40674,-0.014,0.09,-0.99,192,0,0,0,0,0,0,0,0,0,0
 2023-06-24 15:06:58.456,-55959.51449,33077.65372,5610.131396,27506.23554,22083.83645,-59719.39084,14882.75258,-52136.11449,-0.014,0.09,-0.99,192,0,0,0,0,0,0,0,0,0,0
 2023-06-24 15:06:58.456,-56057.75041,31978.21611,4516.304078,26407.26732,20984.01886,-58846.21994,13799.07296,-51590.41901,-0.016,0.094,-0.988,192,255,128,2,240,225,32,0,0,0,0
 2023-06-24 15:06:58.456,-56320.83044,31944.68849,4501.507223,26326.59988,20975.72636,-59220.5446,13782.2868,-51820.3961,-0.016,0.094,-0.988,192,0,0,0,0,0,0,0,0,0,0
 2023-06-24 15:06:58.456,-56403.82247,32941.91157,5510.286154,27291.83761,21987.88041,-60250.82591,14786.32716,-52456.92908,-0.016,0.094,-0.988,192,0,0,0,0,0,0,0,0,0,0
 2023-06-24 15:06:58.456,-56206.45657,33605.31135,6159.827847,27971.91178,22631.49889,-60564.73381,15445.25658,-52655.18906,-0.016,0.094,-0.988,192,0,0,0,0,0,0,0,0,0,0
 2023-06-24 15:06:58.456,-55994.29381,33076.89376,5610.153748,27498.0101,22077.19798,-59739.4627,14887.73702,-52144.87638,-0.016,0.094,-0.988,192,0,0,0,0,0,0,0,0,0,0
 2023-06-24 15:06:58.456,-56087.45588,31960.1559,4495.248734,26398.75131,20963.79053,-58860.83798,13768.38401,-51593.19062,-0.016,0.094,-0.988,192,0,0,0,0,0,0,0,0,0,0
 2023-06-24 15:06:58.456,-56345.59618,31924.16959,4479.334292,26315.02167,20953.50873,-59217.19184,13751.19552,-51812.39418,-0.016,0.094,-0.988,192,0,0,0,0,0,0,0,0,0,0
 2023-06-24 15:06:58.456,-56437.12657,32873.85051,5440.4146,27218.61329,21914.61139,-60248.7472,14715.98622,-52449.64241,-0.016,0.094,-0.988,192,0,0,0,0,0,0,0,0,0,0
 2023-06-24 15:06:58.456,-56241.52645,33549.20847,6101.758015,27910.53389,22571.4174,-60575.46265,15381.44235,-52653.37856,-0.016,0.094,-0.988,192,0,0,0,0,0,0,0,0,0,0
 2023-06-24 15:06:58.456,-56034.57165,32978.90371,5507.872165,27396.04144,21980.81726,-59768.47527,14796.11722,-52154.95701,-0.016,0.094,-0.988,192,0,0,0,0,0,0,0,0,0,0
 2023-06-24 15:06:58.456,-56117.04959,31928.707,4459.307129,26363.54731,20939.36007,-58872.17031,13755.91174,-51589.99432,-0.02,0.098,-0.988,192,255,96,3,16,225,32,0,0,0,0
 2023-06-24 15:06:58.456,-56375.92749,31903.56128,4459.44124,26281.82933,20930.46408,-59211.26863,13750.70378,-51796.72561,-0.02,0.098,-0.988,192,0,0,0,0,0,0,0,0,0,0
 2023-06-24 15:06:58.456,-56475.90685,32850.76116,5417.794635,27185.21979,21888.59396,-60242.53341,14691.42165,-52432.47627,-0.02,0.098,-0.988,192,0,0,0,0,0,0,0,0,0,0
 2023-06-24 15:06:58.456,-56286.63227,33542.68176,6091.140937,27903.00136,22565.11421,-60582.54815,15358.15184,-52644.54963,-0.02,0.098,-0.988,192,0,0,0,0,0,0,0,0,0,0
 2023-06-24 15:06:58.456,-56071.45203,33058.56533,5584.918628,27477.82647,22060.52358,-59775.2702,14857.45041,-52145.36812,-0.02,0.098,-0.988,192,0,0,0,0,0,0,0,0,0,0
 2023-06-24 15:06:58.457,-56155.27107,31970.84003,4498.042702,26399.04188,20970.18313,-58871.18684,13777.63763,-51576.96326,-0.02,0.098,-0.988,192,0,0,0,0,0,0,0,0,0,0
 2023-06-24 15:06:58.457,-56418.66403,31909.28333,4454.903836,26288.5125,20931.11228,-59198.61754,13737.62801,-51777.19018,-0.02,0.098,-0.988,192,0,0,0,0,0,0,0,0,0,0
 2023-06-24 15:06:58.457,-56522.35377,32868.88842,5423.561385,27205.73869,21899.70278,-60226.77543,14709.07953,-52411.73386,-0.02,0.098,-0.988,192,0,0,0,0,0,0,0,0,0,0
 2023-06-24 15:06:58.457,-56345.64088,33525.9403,6069.191524,27895.33471,22548.64097,-60589.14192,15356.56486,-52639.49813,-0.02,0.098,-0.988,192,0,0,0,0,0,0,0,0,0,0
 2023-06-24 15:06:58.457,-56137.83671,33023.67425,5544.551378,27455.83236,22022.92794,-59798.73953,14826.11326,-52151.85012,-0.02,0.098,-0.988,192,0,0,0,0,0,0,0,0,0,0
 2023-06-24 15:06:58.457,-56223.82387,31899.13564,4421.085646,26343.38604,20896.28826,-58890.43169,13702.15579,-51581.14303,-0.012,0.098,-0.994,192,255,160,3,16,224,240,0,0,0,0
 2023-06-24 15:06:58.457,-56486.59098,31850.43119,4398.778605,26228.27455,20872.12603,-59198.86341,13687.40364,-51767.73539,-0.012,0.098,-0.994,192,0,0,0,0,0,0,0,0,0,0
 2023-06-24 15:06:58.457,-56588.93962,32863.76987,5427.137664,27194.45106,21892.75138,-60219.75699,14685.72196,-52396.17704,-0.012,0.098,-0.994,192,0,0,0,0,0,0,0,0,0,0
 2023-06-24 15:06:58.457,-56403.06251,33596.41535,6147.69085,27958.88072,22612.00817,-60587.64435,15399.9496,-52625.41653,-0.012,0.098,-0.994,192,0,0,0,0,0,0,0,0,0,0
 2023-06-24 15:06:58.457,-56184.39539,33135.7012,5665.250798,27554.04592,22135.06664,-59799.56654,14945.22571,-52140.0931,-0.012,0.098,-0.994,192,0,0,0,0,0,0,0,0,0,0
 2023-06-24 15:06:58.457,-56272.39421,31957.38428,4484.363435,26394.30331,20955.81096,-58886.00604,13773.3014,-51569.83305,-0.012,0.098,-0.994,192,0,0,0,0,0,0,0,0,0,0
 2023-06-24 15:06:58.457,-56537.08357,31869.45252,4416.570594,26245.06071,20882.51959,-59183.59717,13705.88853,-51751.55273,-0.012,0.098,-0.994,192,0,0,0,0,0,0,0,0,0,0
 2023-06-24 15:06:58.457,-56648.2388,32830.39872,5390.257286,27157.59303,21853.47937,-60209.72105,14683.12915,-52383.81653,-0.012,0.098,-0.994,192,0,0,0,0,0,0,0,0,0,0
 2023-06-24 15:06:58.457,-56462.80872,33597.30942,6145.455676,27946.11787,22609.75064,-60592.7182,15416.95928,-52621.72849,-0.012,0.098,-0.994,192,0,0,0,0,0,0,0,0,0,0
 2023-06-24 15:06:58.457,-56243.29224,33142.42907,5665.40726,27552.81658,22130.26102,-59818.99021,14937.38025,-52144.83167,-0.012,0.098,-0.994,192,0,0,0,0,0,0,0,0,0,0
 2023-06-24 15:06:58.457,-56328.72061,31959.03831,4482.37413,26410.86595,20952.56996,-58898.67948,13755.59881,-51568.71546,-0.018,0.096,-0.994,192,255,112,3,0,224,240,0,0,0,0
 2023-06-24 15:06:58.457,-56589.85604,31869.25135,4418.425789,26267.45716,20887.16875,-59178.00923,13697.46193,-51740.08629,-0.018,0.096,-0.994,192,0,0,0,0,0,0,0,0,0,0
 2023-06-24 15:06:58.457,-56704.43108,32800.87206,5363.926931,27140.27043,21829.13832,-60201.3168,14639.38679,-52371.12074,-0.018,0.096,-0.994,192,0,0,0,0,0,0,0,0,0,0
 2023-06-24 15:06:58.457,-56529.17105,33521.33584,6070.175,27882.75068,22539.81203,-60604.76579,15344.2714,-52625.48359,-0.018,0.096,-0.994,192,0,0,0,0,0,0,0,0,0,0
 2023-06-24 15:06:58.457,-56315.7566,33050.5187,5576.268503,27467.70113,22047.06783,-59848.4051,14856.51164,-52160.85788,-0.018,0.096,-0.994,192,0,0,0,0,0,0,0,0,0,0
 2023-06-24 15:06:58.457,-56390.47848,31930.62925,4454.993243,26361.71447,20921.52338,-58911.62114,13739.12558,-51571.55413,-0.018,0.096,-0.994,192,0,0,0,0,0,0,0,0,0,0
 2023-06-24 15:06:58.457,-56647.79176,31837.46717,4386.619256,26207.28626,20842.57702,-59174.85764,13666.25889,-51730.87737,-0.018,0.096,-0.994,192,0,0,0,0,0,0,0,0,0,0
 2023-06-24 15:06:58.457,-56759.8187,32799.53096,5364.016338,27115.21412,21815.90609,-60191.92907,14639.61031,-52356.5921,-0.018,0.096,-0.994,192,0,0,0,0,0,0,0,0,0,0
 2023-06-24 15:06:58.457,-56582.56937,33530.54476,6080.747376,27871.30658,22534.64878,-60609.79493,15349.47936,-52619.2251,-0.018,0.096,-0.994,192,0,0,0,0,0,0,0,0,0,0
 2023-06-24 15:06:58.457,-56363.09759,33079.19599,5605.325771,27479.25699,22056.3438,-59862.57611,14880.07037,-52160.41084,-0.018,0.096,-0.994,192,0,0,0,0,0,0,0,0,0,0
 2023-06-24 15:06:58.457,-56439.85348,31893.68181,4414.60364,26319.872,20871.14255,-58922.03706,13701.46289,-51571.62119,-0.018,0.1,-0.988,192,255,112,3,32,225,32,0,0,0,0
 2023-06-24 15:06:58.457,-56698.19494,31770.479,4313.171424,26160.3923,20779.09807,-59170.54375,13597.48257,-51722.3837,-0.018,0.1,-0.988,192,0,0,0,0,0,0,0,0,0,0
 2023-06-24 15:06:58.457,-56818.84966,32682.51958,5242.57931,27017.20172,21701.77808,-60190.05152,14509.36669,-52348.99251,-0.018,0.1,-0.988,192,0,0,0,0,0,0,0,0,0,0
 2023-06-24 15:06:58.457,-56638.85106,33469.36804,6020.084741,27822.57978,22474.45553,-60620.83669,15279.02666,-52616.20761,-0.018,0.1,-0.988,192,0,0,0,0,0,0,0,0,0,0
 2023-06-24 15:06:58.457,-56405.40944,33117.2163,5644.843655,27531.33655,22105.83056,-59877.10474,14924.43859,-52156.58869,-0.018,0.1,-0.988,192,0,0,0,0,0,0,0,0,0,0
 2023-06-24 15:06:58.457,-56463.21106,32010.00029,4534.073715,26429.14968,20993.4513,-58917.83493,13828.82313,-51553.62803,-0.018,0.1,-0.988,192,0,0,0,0,0,0,0,0,0,0
 2023-06-24 15:06:58.457,-56716.12104,31865.67508,4406.713475,26236.20942,20867.9686,-59152.97528,13687.44835,-51697.68503,-0.018,0.1,-0.988,192,0,0,0,0,0,0,0,0,0,0
 2023-06-24 15:06:58.457,-56841.35787,32743.0928,5295.418834,27076.65736,21756.13752,-60170.02436,14564.08376,-52323.66798,-0.018,0.1,-0.988,192,0,0,0,0,0,0,0,0,0,0
 2023-06-24 15:06:58.457,-56668.13185,33514.9656,6057.501561,27856.1074,22515.02395,-60615.94166,15339.51048,-52601.3437,-0.018,0.1,-0.988,192,0,0,0,0,0,0,0,0,0,0
 2023-06-24 15:06:58.457,-56439.58526,33131.49907,5649.269301,27529.92839,22113.45251,-59889.3535,14933.73691,-52152.7889,-0.018,0.1,-0.988,192,0,0,0,0,0,0,0,0,0,0
 2023-06-24 15:06:58.457,-56497.0516,32008.43567,4523.389581,26433.28475,20992.46782,-58922.10411,13804.30327,-51544.21795,-0.026,0.096,-0.988,192,255,48,3,0,225,32,0,0,0,0
 2023-06-24 15:06:58.457,-56746.54177,31896.25226,4435.502521,26264.03734,20895.21538,-59135.49622,13707.92254,-51673.81336,-0.026,0.096,-0.988,192,0,0,0,0,0,0,0,0,0,0
 2023-06-24 15:06:58.457,-56873.67849,32791.66315,5345.509093,27089.80019,21792.01207,-60147.27028,14612.58705,-52296.86824,-0.026,0.096,-0.988,192,0,0,0,0,0,0,0,0,0,0
 2023-06-24 15:06:58.457,-56698.93255,33602.91971,6143.578129,27915.00424,22594.90908,-60605.77161,15416.80281,-52581.11537,-0.026,0.096,-0.988,192,0,0,0,0,0,0,0,0,0,0
 2023-06-24 15:06:58.457,-56470.60948,33215.72044,5730.62965,27612.02635,22197.91975,-59894.11442,15010.15753,-52140.58484,-0.026,0.096,-0.988,192,0,0,0,0,0,0,0,0,0,0
 2023-06-24 15:06:58.457,-56531.02625,32006.9828,4517.265203,26440.86199,20988.82449,-58927.46853,13786.93596,-51532.46093,-0.026,0.096,-0.988,192,0,0,0,0,0,0,0,0,0,0
 2023-06-24 15:06:58.458,-56785.47851,31812.90261,4343.905073,26182.22996,20802.23212,-59135.2727,13602.66818,-51659.39649,-0.026,0.096,-0.988,192,0,0,0,0,0,0,0,0,0,0
 2023-06-24 15:06:58.458,-56906.89318,32740.92469,5284.935866,27063.93922,21749.72257,-60140.81063,14554.15959,-52275.92466,-0.026,0.096,-0.988,192,0,0,0,0,0,0,0,0,0,0
 2023-06-24 15:06:58.458,-56735.56706,33537.71967,6069.504448,27879.30851,22545.77995,-60614.35468,15368.5901,-52570.11832,-0.026,0.096,-0.988,192,0,0,0,0,0,0,0,0,0,0
 2023-06-24 15:06:58.458,-56502.79599,33189.77007,5698.197269,27585.20425,22179.09958,-59911.36997,14984.58713,-52137.38854,-0.026,0.096,-0.988,192,0,0,0,0,0,0,0,0,0,0
 2023-06-24 15:06:58.458,-56542.35858,32094.15461,4602.917087,26516.61205,21081.316,-58920.15951,13873.61602,-51511.91968,-0.026,0.096,-0.988,192,0,0,0,0,0,0,0,0,0,0
 2023-06-24 15:06:58.458,-56789.50182,31930.78571,4463.397499,26310.8419,20941.55055,-59104.09201,13741.31605,-51621.89026,-0.024,0.092,-0.98,192,255,64,2,224,225,96,0,0,0,0
 2023-06-24 15:06:58.458,-56923.8358,32779.5038,5327.627698,27109.04504,21801.69038,-60113.47444,14620.41016,-52244.05107,-0.024,0.092,-0.98,192,0,0,0,0,0,0,0,0,0,0
 2023-06-24 15:06:58.458,-56765.92073,33516.46316,6053.679413,27859.84014,22528.85968,-60609.07967,15343.51144,-52554.22623,-0.024,0.092,-0.98,192,0,0,0,0,0,0,0,0,0,0
 2023-06-24 15:06:58.458,-56536.94946,33140.32801,5650.945681,27545.46285,22134.32904,-59924.26693,14935.83798,-52133.36523,-0.024,0.092,-0.98,192,0,0,0,0,0,0,0,0,0,0
 2023-06-24 15:06:58.458,-56585.20688,31983.20055,4492.11949,26406.08268,20970.04902,-58933.5035,13772.94377,-51511.5397,-0.024,0.092,-0.98,192,0,0,0,0,0,0,0,0,0,0
 2023-06-24 15:06:58.458,-56834.31707,31824.92785,4361.67471,26194.59047,20834.46334,-59101.45451,13650.83619,-51611.36259,-0.024,0.092,-0.98,192,0,0,0,0,0,0,0,0,0,0
 2023-06-24 15:06:58.458,-56972.76377,32702.18911,5252.883464,27031.55154,21725.87326,-60105.83015,14530.6232,-52227.60018,-0.024,0.092,-0.98,192,0,0,0,0,0,0,0,0,0,0
 2023-06-24 15:06:58.458,-56821.57657,33461.20965,5999.252915,27806.33006,22469.29228,-60613.48297,15266.42028,-52546.31371,-0.024,0.092,-0.98,192,0,0,0,0,0,0,0,0,0,0
 2023-06-24 15:06:58.458,-56589.63252,33157.94118,5671.330472,27549.21795,22139.08996,-59934.34756,14954.05465,-52127.75494,-0.024,0.092,-0.98,192,0,0,0,0,0,0,0,0,0,0
 2023-06-24 15:06:58.458,-56637.21939,32018.44925,4523.791912,26439.74441,21005.56594,-58931.44714,13825.55977,-51495.93818,-0.024,0.092,-0.98,192,0,0,0,0,0,0,0,0,0,0
 2023-06-24 15:06:58.458,-56895.78437,31806.28649,4332.46098,26177.22317,20811.37399,-59086.94823,13629.91495,-51589.74845,-0.022,0.096,-0.982,192,255,80,3,0,225,80,0,0,0,0
 2023-06-24 15:06:58.458,-57041.60715,32685.71588,5232.498673,26998.40391,21699.58761,-60084.23836,14527.60572,-52200.93455,-0.022,0.096,-0.982,192,0,0,0,0,0,0,0,0,0,0
 2023-06-24 15:06:58.458,-56884.34027,33546.90624,6083.541344,27889.99264,22561.80615,-60594.55104,15389.73485,-52514.95421,-0.022,0.096,-0.982,192,0,0,0,0,0,0,0,0,0,0
 2023-06-24 15:06:58.458,-56656.71011,33221.37543,5734.183578,27617.50252,22213.07423,-59933.36409,15040.89118,-52106.87841,-0.022,0.096,-0.982,192,0,0,0,0,0,0,0,0,0,0
 2023-06-24 15:06:58.458,-56703.84994,32070.03708,4578.084299,26498.19422,21056.88555,-58924.36164,13876.81232,-51471.91006,-0.022,0.096,-0.982,192,0,0,0,0,0,0,0,0,0,0
 2023-06-24 15:06:58.458,-56963.4431,31850.16297,4383.110032,26230.46502,20854.46815,-59065.22233,13667.48824,-51554.90208,-0.022,0.096,-0.982,192,0,0,0,0,0,0,0,0,0,0
 2023-06-24 15:06:58.458,-57121.31347,32658.80438,5210.258688,26975.26985,21672.34083,-60071.69903,14487.21611,-52171.85493,-0.022,0.096,-0.982,192,0,0,0,0,0,0,0,0,0,0
 2023-06-24 15:06:58.458,-56975.89302,33465.74705,6007.232488,27786.43701,22466.07363,-60606.66568,15287.9003,-52502.48194,-0.022,0.096,-0.982,192,0,0,0,0,0,0,0,0,0,0
 2023-06-24 15:06:58.458,-56742.33964,33187.22197,5703.360522,27568.4628,22168.03547,-59956.11816,14992.18672,-52100.9999,-0.022,0.096,-0.982,192,0,0,0,0,0,0,0,0,0,0
 2023-06-24 15:06:58.458,-56792.74282,31972.73993,4476.517973,26413.48111,20963.49996,-58948.36741,13774.24017,-51465.38335,-0.022,0.096,-0.982,192,0,0,0,0,0,0,0,0,0,0
 2023-06-24 15:06:58.458,-57056.60517,31703.40141,4226.3796,26102.38953,20720.08946,-59080.75679,13529.42151,-51541.66985,-0.02,0.098,-0.984,192,255,96,3,16,225,64,0,0,0,0
 2023-06-24 15:06:58.458,-57198.58345,32632.83165,5172.148963,26966.08328,21658.52745,-60068.65919,14474.92265,-52145.25636,-0.02,0.098,-0.984,192,0,0,0,0,0,0,0,0,0,0
 2023-06-24 15:06:58.458,-57051.19604,33483.6508,6016.48611,27805.99479,22490.54879,-60610.93487,15314.47653,-52483.05827,-0.02,0.098,-0.984,192,0,0,0,0,0,0,0,0,0,0
 2023-06-24 15:06:58.458,-56816.7933,33208.90316,5717.665639,27585.36072,22191.52715,-59975.45242,15012.61622,-52093.42266,-0.02,0.098,-0.984,192,0,0,0,0,0,0,0,0,0,0
 2023-06-24 15:06:58.458,-56846.45407,32082.68816,4584.946285,26512.25346,21071.6377,-58950.04379,13881.48384,-51448.1725,-0.02,0.098,-0.984,192,0,0,0,0,0,0,0,0,0,0
 2023-06-24 15:06:58.458,-57100.90632,31833.2874,4360.646529,26215.66817,20844.11929,-59056.5275,13664.22488,-51512.34436,-0.02,0.098,-0.984,192,0,0,0,0,0,0,0,0,0,0
 2023-06-24 15:06:58.458,-57253.74755,32675.03174,5224.25088,26991.58662,21690.78102,-60047.49209,14514.68641,-52121.92114,-0.02,0.098,-0.984,192,0,0,0,0,0,0,0,0,0,0
 2023-06-24 15:06:58.458,-57108.05888,33539.03842,6081.484983,27873.43,22550.92085,-60599.98251,15365.79613,-52467.68027,-0.02,0.098,-0.984,192,0,0,0,0,0,0,0,0,0,0
 2023-06-24 15:06:58.458,-56883.04387,33224.52703,5741.179674,27629.57247,22223.5125,-59983.11907,15038.11956,-52093.40031,-0.02,0.098,-0.984,192,0,0,0,0,0,0,0,0,0,0
 2023-06-24 15:06:58.458,-56921.10889,32043.03617,4552.960939,26473.652,21032.70096,-58958.17983,13855.68993,-51451.05588,-0.02,0.098,-0.984,192,0,0,0,0,0,0,0,0,0,0
 2023-06-24 15:06:58.458,-57182.84782,31742.94165,4278.079185,26117.70047,20746.55393,-59055.29816,13578.26007,-51510.9362,-0.02,0.096,-0.99,192,255,96,3,0,225,16,0,0,0,0
 2023-06-24 15:06:58.458,-57338.3042,32601.24863,5155.228693,26919.36814,21621.24474,-60042.30649,14448.30173,-52117.69666,-0.02,0.096,-0.99,192,0,0,0,0,0,0,0,0,0,0
 2023-06-24 15:06:58.458,-57203.81376,33428.39729,5970.910903,27757.5362,22440.50323,-60615.42757,15268.34253,-52477.17976,-0.02,0.096,-0.99,192,0,0,0,0,0,0,0,0,0,0
 2023-06-24 15:06:58.458,-56964.62774,33223.29768,5740.687935,27603.46563,22212.35898,-60003.41445,15045.94267,-52104.30796,-0.02,0.096,-0.99,192,0,0,0,0,0,0,0,0,0,0
 2023-06-24 15:06:58.458,-56986.86772,32093.88639,4605.375779,26500.92113,21077.80678,-58964.66183,13921.62757,-51452.5758,-0.02,0.096,-0.99,192,0,0,0,0,0,0,0,0,0,0
 2023-06-24 15:06:58.458,-57243.91279,31782.19131,4317.21709,26143.56144,20786.11651,-59041.77535,13625.91399,-51500.52029,-0.02,0.096,-0.99,192,0,0,0,0,0,0,0,0,0,0
 2023-06-24 15:06:58.458,-57405.38179,32586.18356,5138.464885,26907.43231,21607.29725,-60027.57669,14428.02869,-52109.2477,-0.02,0.096,-0.99,192,0,0,0,0,0,0,0,0,0,0
 2023-06-24 15:06:58.458,-57263.29175,33499.6323,6045.163398,27824.27851,22506.44088,-60604.63167,15323.39487,-52471.50242,-0.02,0.096,-0.99,192,0,0,0,0,0,0,0,0,0,0
 2023-06-24 15:06:58.458,-57017.3108,33344.95823,5867.355271,27717.63834,22328.74451,-60002.20746,15152.31462,-52105.42555,-0.02,0.096,-0.99,192,0,0,0,0,0,0,0,0,0,0
 2023-06-24 15:06:58.458,-57039.46138,32181.48287,4693.911039,26600.65461,21167.45963,-58963.54425,13988.5934,-51456.28619,-0.02,0.096,-0.99,192,0,0,0,0,0,0,0,0,0,0
 2023-06-24 15:06:58.458,-57299.03219,31829.57701,4362.412317,26204.35818,20836.74322,-59030.73359,13660.80507,-51498.86626,-0.026,0.094,-0.986,192,255,48,2,240,225,48,0,0,0,0
 2023-06-24 15:06:58.458,-57463.36221,32631.87052,5179.972074,26965.88212,21657.67809,-60016.04319,14470.74288,-52105.60436,-0.026,0.094,-0.986,192,0,0,0,0,0,0,0,0,0,0
 2023-06-24 15:06:58.458,-57321.85332,33551.44364,6089.486908,27880.26963,22559.97331,-60606.68804,15371.7864,-52473.37997,-0.026,0.094,-0.986,192,0,0,0,0,0,0,0,0,0,0
 2023-06-24 15:06:58.458,-57085.08129,33316.97384,5828.910271,27687.70935,22300.96129,-60027.95667,15127.45948,-52122.01054,-0.026,0.094,-0.986,192,0,0,0,0,0,0,0,0,0,0
 2023-06-24 15:06:58.458,-57099.22994,32173.30213,4679.158888,26583.08614,21155.90378,-58981.04566,13976.72462,-51466.94797,-0.026,0.094,-0.986,192,0,0,0,0,0,0,0,0,0,0
 2023-06-24 15:06:58.458,-57344.94267,31877.16387,4406.40055,26252.70501,20881.33495,-59021.07764,13698.73598,-51490.79728,-0.026,0.094,-0.986,192,0,0,0,0,0,0,0,0,0,0
 2023-06-24 15:06:58.458,-57500.95785,32709.11815,5256.727964,27029.56224,21726.90144,-59995.23371,14548.83987,-52090.49458,-0.026,0.094,-0.986,192,0,0,0,0,0,0,0,0,0,0
 2023-06-24 15:06:58.459,-57362.71231,33601.73507,6141.052382,27918.49112,22608.81187,-60602.10593,15420.75907,-52469.53547,-0.026,0.094,-0.986,192,0,0,0,0,0,0,0,0,0,0
 2023-06-24 15:06:58.459,-57111.83633,33429.67134,5942.412429,27809.07933,22416.16218,-60031.6,15218.81106,-52122.94932,-0.026,0.094,-0.986,192,0,0,0,0,0,0,0,0,0,0
 2023-06-24 15:06:58.459,-57121.20171,32227.05808,4731.350211,26647.95091,21212.45369,-58984.57724,14026.50196,-51469.45136,-0.026,0.094,-0.986,192,0,0,0,0,0,0,0,0,0,0
 2023-06-24 15:06:58.459,-57365.57333,31867.12794,4395.38114,26247.16178,20877.42339,-59011.86872,13685.16847,-51486.6175,-0.018,0.098,-0.984,192,255,112,3,16,225,64,0,0,0,0
 2023-06-24 15:06:58.935,-57511.8655,32706.68181,5253.844589,27026.25418,21730.2095,-59978.78283,14545.82239,-52078.98344,-0.018,0.098,-0.984,192,0,0,0,0,0,0,0,0,0,0
 2023-06-24 15:06:58.935,-57370.06603,33587.47465,6129.608289,27910.82447,22600.60878,-60598.61906,15413.56181,-52465.60156,-0.018,0.098,-0.984,192,0,0,0,0,0,0,0,0,0,0
 2023-06-24 15:06:58.935,-57111.25518,33432.53236,5951.129609,27806.8218,22421.43719,-60039.8925,15236.69246,-52125.2739,-0.018,0.098,-0.984,192,0,0,0,0,0,0,0,0,0,0
 2023-06-24 15:06:58.935,-57103.61089,32279.58468,4789.643561,26688.56402,21261.9181,-58983.75022,14078.67093,-51463.5058,-0.018,0.098,-0.984,192,0,0,0,0,0,0,0,0,0,0
 2023-06-24 15:06:58.935,-57335.6667,31947.72833,4480.138955,26303.26465,20945.12682,-58988.80172,13762.21493,-51463.88578,-0.018,0.098,-0.984,192,0,0,0,0,0,0,0,0,0,0
 2023-06-24 15:06:58.935,-57494.96758,32690.67796,5236.589043,26990.91607,21697.48654,-59960.76732,14523.11302,-52061.8173,-0.018,0.098,-0.984,192,0,0,0,0,0,0,0,0,0,0
 2023-06-24 15:06:58.935,-57355.98443,33555.69047,6085.463594,27871.37364,22559.2357,-60593.38875,15384.07986,-52457.21966,-0.018,0.098,-0.984,192,0,0,0,0,0,0,0,0,0,0
 2023-06-24 15:06:58.935,-57097.08418,33371.80267,5878.084109,27746.58385,22352.3703,-60048.05089,15189.195,-52124.13396,-0.018,0.098,-0.984,192,0,0,0,0,0,0,0,0,0,0
 2023-06-24 15:06:58.935,-57081.9744,32230.94728,4735.328822,26634.02577,21204.38471,-58982.27501,14052.72055,-51454.87803,-0.018,0.098,-0.984,192,0,0,0,0,0,0,0,0,0,0
 2023-06-24 15:06:58.935,-57328.91647,31791.40023,4319.496968,26162.73924,20789.7822,-58981.73857,13620.88485,-51451.99465,-0.02,0.1,-0.988,192,255,96,3,32,225,32,0,0,0,0
 2023-06-24 15:06:58.935,-57487.23388,32596.73358,5144.656318,26913.28846,21612.14758,-59939.66728,14427.80518,-52037.25273,-0.02,0.1,-0.988,192,0,0,0,0,0,0,0,0,0,0
 2023-06-24 15:06:58.935,-57346.95433,33537.31734,6075.338253,27855.41449,22541.98015,-60578.32367,15351.2675,-52433.4374,-0.02,0.1,-0.988,192,0,0,0,0,0,0,0,0,0,0
 2023-06-24 15:06:58.935,-57087.94231,33377.43531,5893.327998,27740.79475,22356.25951,-60046.50862,15175.42633,-52106.87841,-0.02,0.1,-0.988,192,0,0,0,0,0,0,0,0,0,0
 2023-06-24 15:06:58.936,-57063.55656,32253.38844,4762.888522,26646.6098,21223.74132,-58973.42372,14066.86921,-51428.77119,-0.02,0.1,-0.988,192,0,0,0,0,0,0,0,0,0,0
 2023-06-24 15:06:58.936,-57291.25378,31882.39418,4410.982658,26247.36294,20876.64108,-58943.53943,13707.83314,-51404.07251,-0.02,0.1,-0.988,192,0,0,0,0,0,0,0,0,0,0
 2023-06-24 15:06:58.936,-57448.83358,32640.76652,5184.91181,26971.15713,21663.26602,-59898.3389,14475.77202,-51984.65907,-0.02,0.1,-0.988,192,0,0,0,0,0,0,0,0,0,0
 2023-06-24 15:06:58.936,-57311.37035,33561.61369,6099.969876,27890.61849,22571.88679,-60551.90391,15385.01863,-52388.44334,-0.02,0.1,-0.988,192,0,0,0,0,0,0,0,0,0,0
 2023-06-24 15:06:58.936,-57049.05028,33416.70733,5933.427028,27795.53417,22401.67825,-60034.52808,15224.89074,-52070.42272,-0.02,0.1,-0.988,192,0,0,0,0,0,0,0,0,0,0
 2023-06-24 15:06:58.936,-57019.9036,32258.79756,4765.682491,26671.532,21239.25343,-58961.86786,14068.41148,-51394.17069,-0.02,0.1,-0.988,192,0,0,0,0,0,0,0,0,0,0
 2023-06-24 15:06:58.936,-57246.97497,31846.74315,4372.917637,26216.87516,20845.41569,-58918.79605,13669.79047,-51362.52062,-0.02,0.094,-0.986,192,255,96,2,240,225,48,0,0,0,0
 2023-06-24 15:06:58.936,-57404.73359,32600.57808,5144.052821,26909.91335,21611.40998,-59865.43713,14446.40183,-51941.52021,-0.02,0.094,-0.986,192,0,0,0,0,0,0,0,0,0,0
 2023-06-24 15:06:58.936,-57265.68338,33541.16184,6075.67353,27853.76046,22545.51173,-60526.55703,15374.55802,-52350.66889,-0.02,0.094,-0.986,192,0,0,0,0,0,0,0,0,0,0
 2023-06-24 15:06:58.936,-57000.94932,33421.64706,5933.225862,27789.67801,22403.15347,-60020.73705,15230.56808,-52039.4879,-0.02,0.094,-0.986,192,0,0,0,0,0,0,0,0,0,0
 2023-06-24 15:06:58.936,-56973.45668,32258.95402,4759.178133,26665.63114,21228.30108,-58945.84166,14064.2317,-51361.6489,-0.02,0.094,-0.986,192,0,0,0,0,0,0,0,0,0,0
 2023-06-24 15:06:58.936,-57199.2093,31845.20088,4365.318044,26216.74105,20833.12223,-58882.13919,13665.43188,-51316.87836,-0.02,0.094,-0.986,192,0,0,0,0,0,0,0,0,0,0
 2023-06-24 15:06:58.936,-57367.20501,32532.09234,5071.342596,26848.24489,21533.76002,-59830.21078,14363.4545,-51897.55433,-0.02,0.094,-0.986,192,0,0,0,0,0,0,0,0,0,0
 2023-06-24 15:06:58.936,-57234.68152,33460.56145,5995.810747,27771.30488,22458.78696,-60508.11684,15285.06163,-52315.68841,-0.02,0.094,-0.986,192,0,0,0,0,0,0,0,0,0,0
 2023-06-24 15:06:58.936,-56978.2176,33322.33826,5830.385486,27691.64326,22300.04487,-60020.87116,15120.37398,-52014.83393,-0.02,0.094,-0.986,192,0,0,0,0,0,0,0,0,0,0
 2023-06-24 15:06:58.936,-56941.51603,32221.22427,4719.302621,26635.09865,21192.42653,-58935.82808,14006.47479,-51327.18251,-0.02,0.094,-0.986,192,0,0,0,0,0,0,0,0,0,0
 2023-06-24 15:06:58.936,-57174.2871,31782.03485,4296.564078,26156.95013,20769.19624,-58858.6028,13579.64588,-51270.0738,-0.026,0.098,-0.99,192,255,48,3,16,225,16,0,0,0,0
 2023-06-24 15:06:58.936,-57349.30126,32529.29837,5061.708994,26834.74443,21527.30036,-59795.56558,14340.07458,-51837.13756,-0.026,0.098,-0.99,192,0,0,0,0,0,0,0,0,0,0
 2023-06-24 15:06:58.936,-57229.98765,33494.17847,6022.677543,27793.63427,22479.99876,-60481.22769,15292.28125,-52257.61858,-0.026,0.098,-0.99,192,0,0,0,0,0,0,0,0,0,0
 2023-06-24 15:06:58.936,-56978.23995,33433.717,5939.752572,27785.94527,22395.57623,-59996.79834,15211.36793,-51957.05467,-0.026,0.098,-0.99,192,0,0,0,0,0,0,0,0,0,0
 2023-06-24 15:06:58.936,-56960.26915,32279.74114,4774.220857,26682.32789,21240.97451,-58910.57061,14064.58933,-51271.86194,-0.026,0.098,-0.99,192,0,0,0,0,0,0,0,0,0,0
 2023-06-24 15:06:58.936,-57212.30742,31792.47311,4311.159767,26155.69844,20772.32549,-58820.26956,13593.74983,-51209.52293,-0.026,0.098,-0.99,192,0,0,0,0,0,0,0,0,0,0
 2023-06-24 15:06:58.936,-57399.83855,32538.06025,5078.115175,26835.01265,21528.10502,-59752.91845,14346.48953,-51776.54198,-0.026,0.098,-0.99,192,0,0,0,0,0,0,0,0,0,0
 2023-06-24 15:06:58.936,-57298.62986,33474.93362,6010.741712,27760.84426,22450.71798,-60459.81472,15262.75459,-52214.72558,-0.026,0.098,-0.99,192,0,0,0,0,0,0,0,0,0,0
 2023-06-24 15:06:58.936,-57060.06969,33374.23901,5888.410615,27713.05623,22329.45977,-60000.37462,15139.06004,-51933.20536,-0.026,0.098,-0.99,192,0,0,0,0,0,0,0,0,0,0
 2023-06-24 15:06:58.936,-57038.65672,32249.23101,4750.505656,26637.89262,21204.65293,-58913.5881,14015.72842,-51247.87852,-0.026,0.098,-0.99,192,0,0,0,0,0,0,0,0,0,0
 2023-06-24 15:06:58.936,-57286.91754,31752.82112,4274.949941,26103.66358,20731.28769,-58807.2385,13554.2096,-51176.86703,-0.018,0.094,-0.986,192,255,112,2,240,225,48,0,0,0,0
 2023-06-24 15:06:58.936,-57481.13185,32467.60755,5012.736322,26747.93026,21456.49003,-59736.06524,14285.69279,-51742.94731,-0.018,0.094,-0.986,192,0,0,0,0,0,0,0,0,0,0
 2023-06-24 15:06:58.936,-57378.40323,33454.95116,5996.74952,27719.87351,22431.02609,-60449.93525,15265.4815,-52184.21545,-0.018,0.094,-0.986,192,0,0,0,0,0,0,0,0,0,0
 2023-06-24 15:06:58.936,-57135.66329,33412.68401,5927.526167,27751.32242,22375.59377,-60003.10153,15193.50889,-51909.24429,-0.018,0.094,-0.986,192,0,0,0,0,0,0,0,0,0,0
 2023-06-24 15:06:58.936,-57106.87424,32303.43399,4805.535651,26695.09073,21257.13483,-58912.13523,14068.635,-51223.2022,-0.018,0.094,-0.986,192,0,0,0,0,0,0,0,0,0,0
 2023-06-24 15:06:58.936,-57351.64819,31793.47894,4317.261793,26150.60224,20770.11267,-58787.3678,13582.01517,-51145.21696,-0.018,0.094,-0.986,192,0,0,0,0,0,0,0,0,0,0
 2023-06-24 15:06:58.936,-57546.89068,32485.48895,5029.656593,26773.4783,21479.1547,-59711.99241,14289.7608,-51710.78315,-0.018,0.094,-0.986,192,0,0,0,0,0,0,0,0,0,0
 2023-06-24 15:06:58.936,-57441.94924,33466.90935,6008.663,27746.91912,22453.24373,-60443.65441,15273.57284,-52162.82483,-0.018,0.094,-0.986,192,0,0,0,0,0,0,0,0,0,0
 2023-06-24 15:06:58.936,-57190.82739,33414.24864,5934.47756,27763.95115,22382.20988,-60012.46691,15200.7285,-51898.5378,-0.018,0.094,-0.986,192,0,0,0,0,0,0,0,0,0,0
 2023-06-24 15:06:58.936,-57152.49415,32270.97926,4779.38411,26668.51451,21228.74811,-58920.58419,14060.23074,-51214.52972,-0.018,0.094,-0.986,192,0,0,0,0,0,0,0,0,0,0
 2023-06-24 15:06:58.936,-57383.38767,31781.78898,4311.785616,26134.17371,20755.7852,-58778.4718,13598.26488,-51122.30642,-0.02,0.096,-0.984,192,255,96,3,0,225,64,0,0,0,0
 2023-06-24 15:06:58.936,-57563.47568,32517.16137,5064.972349,26821.02046,21513.95637,-59689.28304,14342.06388,-51675.37799,-0.02,0.096,-0.984,192,0,0,0,0,0,0,0,0,0,0
 2023-06-24 15:06:58.936,-57456.29906,33477.12409,6018.92245,27790.05799,22469.76167,-60435.1831,15286.40274,-52138.97552,-0.02,0.096,-0.984,192,0,0,0,0,0,0,0,0,0,0
 2023-06-24 15:06:58.936,-57200.23748,33413.24281,5932.600013,27779.19504,22384.62387,-60020.11121,15216.71,-51886.26669,-0.02,0.096,-0.984,192,0,0,0,0,0,0,0,0,0,0
 2023-06-24 15:06:58.936,-57146.30272,32279.53998,4793.957447,26688.45227,21241.89094,-58923.8699,14079.31913,-51196.82714,-0.02,0.096,-0.984,192,0,0,0,0,0,0,0,0,0,0
 2023-06-24 15:06:58.936,-57360.43243,31780.49258,4315.630116,26153.06093,20761.50724,-58759.42811,13585.34558,-51091.72923,-0.02,0.096,-0.984,192,0,0,0,0,0,0,0,0,0,0
 2023-06-24 15:06:58.936,-57538.2182,32465.6853,5022.638145,26777.00988,21461.60858,-59665.25491,14273.71225,-51641.15747,-0.02,0.096,-0.984,192,0,0,0,0,0,0,0,0,0,0
 2023-06-24 15:06:58.936,-57431.2204,33402.06693,5955.577607,27713.9503,22395.28565,-60422.77788,15200.70615,-52108.55479,-0.02,0.096,-0.984,192,0,0,0,0,0,0,0,0,0,0
 2023-06-24 15:06:58.936,-57164.85467,33395.36141,5924.173406,27757.17858,22365.89311,-60017.36194,15177.57209,-51858.17055,-0.02,0.096,-0.984,192,0,0,0,0,0,0,0,0,0,0
 2023-06-24 15:06:58.936,-57104.10262,32257.45645,4769.929322,26657.47275,21212.31958,-58921.9253,14040.78472,-51168.93216,-0.02,0.096,-0.984,192,0,0,0,0,0,0,0,0,0,0
 2023-06-24 15:06:58.936,-57314.87957,31727.94363,4258.767278,26088.33028,20700.0176,-58741.63613,13529.35446,-51051.87607,-0.018,0.098,-0.988,192,255,112,3,16,225,32,0,0,0,0
 2023-06-24 15:06:58.936,-57495.05699,32399.43473,4948.497408,26704.83609,21392.83227,-59638.70104,14224.06903,-51594.1741,-0.018,0.098,-0.988,192,0,0,0,0,0,0,0,0,0,0
 2023-06-24 15:06:58.937,-57386.02518,33405.35264,5955.734069,27702.17093,22394.39158,-60401.76724,15233.22794,-52061.92905,-0.018,0.098,-0.988,192,0,0,0,0,0,0,0,0,0,0
 2023-06-24 15:06:58.937,-57119.61473,33482.51086,6010.227622,27830.40289,22448.34869,-60001.06752,15285.24045,-51812.03655,-0.018,0.098,-0.988,192,0,0,0,0,0,0,0,0,0,0
 2023-06-24 15:06:58.937,-57072.36315,32341.49901,4847.55693,26753.27233,21302.97825,-58903.93214,14126.86129,-51122.39583,-0.018,0.098,-0.988,192,0,0,0,0,0,0,0,0,0,0
 2023-06-24 15:06:58.937,-57299.56863,31792.92015,4319.541671,26163.34273,20774.73948,-58707.23679,13604.14339,-50995.61673,-0.018,0.098,-0.988,192,0,0,0,0,0,0,0,0,0,0
 2023-06-24 15:06:58.937,-57503.75181,32426.65916,4977.957008,26728.68541,21421.15193,-59600.56896,14252.23222,-51536.26073,-0.018,0.098,-0.988,192,0,0,0,0,0,0,0,0,0,0
 2023-06-24 15:06:58.937,-57420.67038,33417.08731,5966.552313,27703.7132,22403.53345,-60376.73329,15231.01511,-52014.34219,-0.018,0.098,-0.988,192,0,0,0,0,0,0,0,0,0,0
 2023-06-24 15:06:58.937,-57177.86338,33441.65187,5968.876895,27785.49824,22410.26132,-59999.99464,15232.89266,-51784.54391,-0.018,0.098,-0.988,192,0,0,0,0,0,0,0,0,0,0
 2023-06-24 15:06:58.937,-57138.50196,32303.54575,4816.242137,26693.86139,21265.24851,-58907.55313,14097.08877,-51098.74768,-0.018,0.098,-0.988,192,0,0,0,0,0,0,0,0,0,0
 2023-06-24 15:06:58.937,-57369.30607,31784.89587,4312.657334,26144.03083,20768.34688,-58692.21642,13600.09773,-50959.921,-0.014,0.096,-0.992,192,255,144,3,0,225,0,0,0,0,0
 2023-06-24 15:06:58.937,-57592.01885,32366.39886,4910.879423,26676.44938,21369.47469,-59584.85569,14185.28875,-51503.02368,-0.014,0.096,-0.992,192,0,0,0,0,0,0,0,0,0,0
 2023-06-24 15:06:58.937,-57523.57781,33340.86786,5883.783803,27638.71433,22335.67355,-60383.03648,15151.75583,-51991.31989,-0.014,0.096,-0.992,192,0,0,0,0,0,0,0,0,0,0
 2023-06-24 15:06:58.937,-57276.70279,33438.07559,5960.74086,27786.41466,22413.8376,-60029.74481,15227.6847,-51765.29905,-0.014,0.096,-0.992,192,0,0,0,0,0,0,0,0,0,0
 2023-06-24 15:06:58.937,-57238.97305,32272.49918,4773.282084,26679.08689,21237.95703,-58951.87663,14051.11123,-51084.9343,-0.014,0.096,-0.992,192,0,0,0,0,0,0,0,0,0,0
 2023-06-24 15:06:58.937,-57472.07939,31705.03309,4227.228967,26064.2798,20682.58323,-58733.88007,13506.44392,-50943.78304,-0.014,0.096,-0.992,192,0,0,0,0,0,0,0,0,0,0
 2023-06-24 15:06:58.937,-57673.44626,32418.14314,4961.282606,26720.81759,21412.88178,-59606.42512,14230.72985,-51470.61365,-0.014,0.096,-0.992,192,0,0,0,0,0,0,0,0,0,0
 2023-06-24 15:06:58.937,-57606.14516,33344.57825,5885.907219,27646.58214,22340.70269,-60419.35807,15154.5498,-51972.2315,-0.014,0.096,-0.992,192,0,0,0,0,0,0,0,0,0,0
 2023-06-24 15:06:58.937,-57351.7823,33442.36713,5966.149982,27787.30873,22416.87744,-60076.3929,15226.85769,-51758.72764,-0.014,0.096,-0.992,192,0,0,0,0,0,0,0,0,0,0
 2023-06-24 15:06:58.937,-57283.43067,32390.94107,4899.480033,26786.3082,21353.38144,-58982.29736,14164.61339,-51068.72929,-0.014,0.096,-0.992,192,0,0,0,0,0,0,0,0,0,0
 2023-06-24 15:06:58.937,-57503.30478,31767.90855,4297.324037,26128.58577,20745.19047,-58744.31834,13562.77031,-50915.99982,-0.014,0.094,-0.992,192,255,144,2,240,225,0,0,0,0,0
 2023-06-24 15:06:58.937,-57706.99623,32391.58927,4942.10481,26686.19474,21382.52811,-59611.87894,14201.82904,-51441.75755,-0.014,0.094,-0.992,192,0,0,0,0,0,0,0,0,0,0
 2023-06-24 15:06:58.937,-57632.43081,33351.61905,5897.351312,27636.88149,22337.17112,-60429.46105,15159.17661,-51947.28696,-0.014,0.094,-0.992,192,0,0,0,0,0,0,0,0,0,0
 2023-06-24 15:06:58.937,-57372.30121,33427.90555,5954.638833,27754.67518,22387.70841,-60103.75143,15220.77801,-51747.97645,-0.014,0.094,-0.992,192,0,0,0,0,0,0,0,0,0,0
 2023-06-24 15:06:58.937,-57295.00887,32393.73504,4904.039789,26783.87186,21349.98397,-59007.48777,14179.11967,-51060.5262,-0.014,0.094,-0.992,192,0,0,0,0,0,0,0,0,0,0
 2023-06-24 15:06:58.937,-57510.83732,31784.98528,4309.952773,26154.35733,20760.3226,-58746.55351,13581.97046,-50897.22435,-0.014,0.094,-0.992,192,0,0,0,0,0,0,0,0,0,0
 2023-06-24 15:06:58.937,-57721.05547,32359.02278,4901.134062,26660.31142,21345.22305,-59605.30753,14171.74359,-51420.76926,-0.014,0.094,-0.992,192,0,0,0,0,0,0,0,0,0,0
 2023-06-24 15:06:58.937,-57652.2121,33336.24105,5874.26196,27615.33441,22318.88739,-60427.73997,15169.14549,-51929.74084,-0.014,0.094,-0.992,192,0,0,0,0,0,0,0,0,0,0
 2023-06-24 15:06:58.937,-57403.41483,33419.14367,5934.142284,27779.70913,22397.31966,-60115.4861,15220.84507,-51739.34868,-0.014,0.094,-0.992,192,0,0,0,0,0,0,0,0,0,0
 2023-06-24 15:06:58.937,-57333.27506,32377.55238,4877.061233,26789.54921,21340.19391,-59020.25062,14153.57162,-51052.90425,-0.014,0.094,-0.992,192,0,0,0,0,0,0,0,0,0,0
 2023-06-24 15:06:58.937,-57556.16666,31748.1049,4266.948017,26119.48861,20721.31881,-58746.24059,13544.64305,-50879.70059,-0.016,0.096,-0.996,192,255,128,3,0,224,224,0,0,0,0
 2023-06-24 15:06:58.937,-57772.93387,32335.77697,4877.195344,26640.15015,21324.70415,-59595.49512,14159.60659,-51395.75766,-0.016,0.096,-0.996,192,0,0,0,0,0,0,0,0,0,0
 2023-06-24 15:06:58.937,-57713.56764,33339.05737,5880.92278,27622.3752,22326.15171,-60428.0976,15156.76262,-51914.09462,-0.016,0.096,-0.996,192,0,0,0,0,0,0,0,0,0,0
 2023-06-24 15:06:58.937,-57468.3243,33444.46819,5964.58536,27770.72373,22404.69574,-60132.69694,15233.78673,-51737.78406,-0.016,0.096,-0.996,192,0,0,0,0,0,0,0,0,0,0
 2023-06-24 15:06:58.937,-57400.24089,32359.291,4865.170105,26738.90015,21307.49331,-59046.58098,14149.90594,-51057.64282,-0.016,0.096,-0.996,192,0,0,0,0,0,0,0,0,0,0
 2023-06-24 15:06:58.937,-57613.96827,31747.4567,4272.848877,26106.07756,20726.05738,-58752.8567,13554.50017,-50870.46932,-0.016,0.096,-0.996,192,0,0,0,0,0,0,0,0,0,0
 2023-06-24 15:06:58.937,-57820.09605,32380.94984,4924.804559,26680.67386,21375.9567,-59584.69922,14202.38783,-51373.09299,-0.016,0.096,-0.996,192,0,0,0,0,0,0,0,0,0,0
 2023-06-24 15:06:58.937,-57760.5063,33376.92122,5919.881871,27656.61808,22362.89798,-60427.51645,15194.2912,-51893.24044,-0.016,0.096,-0.996,192,0,0,0,0,0,0,0,0,0,0
 2023-06-24 15:06:58.937,-57497.87331,33531.14826,6053.053564,27853.04521,22491.17464,-60141.7047,15331.48621,-51719.00859,-0.016,0.096,-0.996,192,0,0,0,0,0,0,0,0,0,0
 2023-06-24 15:06:58.937,-57413.58488,32461.57258,4966.401156,26835.52674,21407.3609,-59053.77824,14246.10785,-51039.56026,-0.016,0.096,-0.996,192,0,0,0,0,0,0,0,0,0,0
 2023-06-24 15:06:58.937,-57621.59021,31807.56054,4325.911918,26164.25916,20776.01353,-58746.4641,13600.52241,-50847.1788,-0.016,0.092,-0.992,192,255,128,2,224,225,0,0,0,0,0
 2023-06-24 15:06:58.937,-57842.64896,32312.59821,4853.144867,26599.62643,21296.27273,-59582.06172,14127.24127,-51357.98321,-0.016,0.092,-0.992,192,0,0,0,0,0,0,0,0,0,0
 2023-06-24 15:06:58.937,-57787.08253,33313.73284,5857.788725,27595.97779,22300.64837,-60434.17727,15125.44782,-51885.57379,-0.016,0.092,-0.992,192,0,0,0,0,0,0,0,0,0,0
 2023-06-24 15:06:58.937,-57538.26291,33439.34964,5963.400717,27788.851,22413.2341,-60169.77849,15223.30376,-51726.96581,-0.016,0.092,-0.992,192,0,0,0,0,0,0,0,0,0,0
 2023-06-24 15:06:58.937,-57448.02892,32410.96823,4922.815254,26791.98555,21364.4232,-59079.03571,14188.44035,-51044.94703,-0.016,0.092,-0.992,192,0,0,0,0,0,0,0,0,0,0
 2023-06-24 15:06:58.937,-57653.21793,31729.17297,4254.162819,26087.39151,20702.0516,-58755.22599,13526.78401,-50842.32847,-0.016,0.092,-0.992,192,0,0,0,0,0,0,0,0,0,0
 2023-06-24 15:06:58.937,-57845.77821,32331.26191,4875.09428,26630.82947,21325.53116,-59569.79061,14152.49874,-51336.79376,-0.016,0.092,-0.992,192,0,0,0,0,0,0,0,0,0,0
 2023-06-24 15:06:58.937,-57763.32262,33382.75503,5926.386228,27662.6307,22371.48105,-60421.61559,15205.06474,-51864.18317,-0.016,0.092,-0.992,192,0,0,0,0,0,0,0,0,0,0
 2023-06-24 15:06:58.937,-57503.90828,33461.58963,5982.958494,27792.7849,22427.271,-60178.2945,15252.80806,-51718.94154,-0.016,0.092,-0.992,192,0,0,0,0,0,0,0,0,0,0
 2023-06-24 15:06:58.937,-57406.8123,32390.31522,4893.333303,26774.73,21338.74104,-59096.58183,14164.59103,-51040.52139,-0.016,0.092,-0.992,192,0,0,0,0,0,0,0,0,0,0
 2023-06-24 15:06:58.937,-57606.97217,31716.49953,4236.326127,26071.83469,20682.60559,-58752.45437,13524.01239,-50820.75904,-0.016,0.092,-0.99,192,255,128,2,224,225,16,0,0,0,0
 2023-06-24 15:06:58.938,-57821.66068,32253.99193,4796.282029,26549.55853,21245.51192,-59562.52629,14087.05283,-51310.374,-0.016,0.092,-0.99,192,0,0,0,0,0,0,0,0,0,0
 2023-06-24 15:06:58.938,-57761.64624,33326.92037,5867.511733,27604.71733,22314.84173,-60420.81093,15144.42446,-51835.86351,-0.016,0.092,-0.99,192,0,0,0,0,0,0,0,0,0,0
 2023-06-24 15:06:58.938,-57507.99865,33513.33392,6033.093456,27830.62641,22478.74707,-60177.86982,15309.84972,-51688.25259,-0.016,0.092,-0.99,192,0,0,0,0,0,0,0,0,0,0
 2023-06-24 15:06:58.938,-57412.51199,32502.43157,5005.650819,26872.58594,21454.61249,-59087.70819,14285.06694,-51004.69154,-0.016,0.092,-0.99,192,0,0,0,0,0,0,0,0,0,0
 2023-06-24 15:06:58.938,-57625.92645,31755.86096,4273.497078,26097.80742,20725.78916,-58732.82954,13556.40007,-50780.16827,-0.016,0.092,-0.99,192,0,0,0,0,0,0,0,0,0,0
 2023-06-24 15:06:58.938,-57851.20968,32250.438,4789.263581,26528.48083,21237.37588,-59538.05113,14075.0723,-51267.54806,-0.016,0.092,-0.99,192,0,0,0,0,0,0,0,0,0,0
 2023-06-24 15:06:58.938,-57801.38764,33297.93016,5839.817922,27566.29468,22284.21984,-60410.1715,15117.66942,-51803.05115,-0.016,0.092,-0.99,192,0,0,0,0,0,0,0,0,0,0
 2023-06-24 15:06:58.938,-57551.42809,33500.34755,6020.218852,27817.39418,22467.50414,-60187.97281,15296.28221,-51664.91737,-0.016,0.092,-0.99,192,0,0,0,0,0,0,0,0,0,0
 2023-06-24 15:06:58.938,-57460.43413,32473.06138,4976.124165,26843.43926,21428.93033,-59106.99774,14263.38574,-50986.54193,-0.016,0.092,-0.99,192,0,0,0,0,0,0,0,0,0,0
 2023-06-24 15:06:58.938,-57675.16734,31716.18661,4234.649746,26083.23408,20697.4695,-58734.14829,13520.45846,-50750.5075,-0.02,0.094,-0.984,192,255,96,2,240,225,64,0,0,0,0
 2023-06-24 15:06:59.115,-57899.98119,32234.81414,4776.321921,26534.96284,21231.05034,-59524.46127,14044.60687,-51228.83484,-0.02,0.094,-0.984,192,0,0,0,0,0,0,0,0,0,0
 2023-06-24 15:06:59.115,-57860.97739,33254.61248,5798.623657,27531.47066,22248.99349,-60409.09861,15052.80466,-51774.01623,-0.02,0.094,-0.984,192,0,0,0,0,0,0,0,0,0,0
 2023-06-24 15:06:59.116,-57612.426,33484.92485,6007.500709,27803.46904,22457.46821,-60199.3722,15273.21521,-51645.91839,-0.02,0.094,-0.984,192,0,0,0,0,0,0,0,0,0,0
 2023-06-24 15:06:59.116,-57523.30959,32434.37051,4941.076629,26799.07105,21385.56795,-59128.67893,14213.16137,-50977.51182,-0.02,0.094,-0.984,192,0,0,0,0,0,0,0,0,0,0
 2023-06-24 15:06:59.116,-57740.03211,31666.74455,4188.627504,26018.63754,20638.46089,-58742.03846,13461.62867,-50734.01192,-0.02,0.094,-0.984,192,0,0,0,0,0,0,0,0,0,0
 2023-06-24 15:06:59.116,-57964.15305,32221.80542,4763.514371,26515.22625,21215.56058,-59514.91708,14029.6312,-51199.24113,-0.02,0.094,-0.984,192,0,0,0,0,0,0,0,0,0,0
 2023-06-24 15:06:59.116,-57937.42036,33217.15095,5760.379822,27491.52809,22209.09562,-60409.05391,15025.73669,-51751.82095,-0.02,0.094,-0.984,192,0,0,0,0,0,0,0,0,0,0
 2023-06-24 15:06:59.116,-57704.89516,33391.31575,5914.092769,27711.64807,22363.50147,-60223.62384,15188.83737,-51641.15747,-0.02,0.094,-0.984,192,0,0,0,0,0,0,0,0,0,0
 2023-06-24 15:06:59.116,-57597.33857,32482.47146,4990.384578,26856.55974,21443.72719,-59140.12303,14267.20789,-50960.32333,-0.02,0.094,-0.984,192,0,0,0,0,0,0,0,0,0,0
 2023-06-24 15:06:59.116,-57798.9066,31782.86186,4306.71177,26133.90549,20760.61317,-58723.06183,13585.59145,-50697.08683,-0.014,0.094,-0.988,192,255,144,2,240,225,32,0,0,0,0
 2023-06-24 15:06:59.116,-58028.68253,32263.8267,4806.474424,26548.6421,21256.7772,-59492.02889,14088.84097,-51165.28883,-0.014,0.094,-0.988,192,0,0,0,0,0,0,0,0,0,0
 2023-06-24 15:06:59.116,-57996.25015,33305.57445,5849.071544,27580.46568,22300.67072,-60389.78671,15123.70439,-51722.76368,-0.014,0.094,-0.988,192,0,0,0,0,0,0,0,0,0,0
 2023-06-24 15:06:59.116,-57754.89602,33539.86544,6056.674547,27873.27354,22518.2873,-60217.09713,15330.7933,-51621.37617,-0.014,0.094,-0.988,192,0,0,0,0,0,0,0,0,0,0
 2023-06-24 15:06:59.116,-57656.03425,32534.64044,5033.277575,26913.02024,21493.2363,-59151.2542,14323.48959,-50956.88116,-0.014,0.094,-0.988,192,0,0,0,0,0,0,0,0,0,0
 2023-06-24 15:06:59.116,-57861.82676,31779.73262,4298.665142,26125.81415,20754.77937,-58722.23481,13588.69834,-50685.84391,-0.014,0.094,-0.988,192,0,0,0,0,0,0,0,0,0,0
 2023-06-24 15:06:59.116,-58090.26159,32272.70034,4812.487043,26559.70622,21269.31653,-59478.59549,14094.3842,-51146.28984,-0.014,0.094,-0.988,192,0,0,0,0,0,0,0,0,0,0
 2023-06-24 15:06:59.116,-58065.96524,33280.4958,5821.288326,27557.48809,22275.41325,-60388.49031,15086.26522,-51712.54894,-0.014,0.094,-0.988,192,0,0,0,0,0,0,0,0,0,0
 2023-06-24 15:06:59.116,-57827.718,33535.79742,6056.607492,27860.08601,22510.62065,-60230.99991,15319.68448,-51621.7785,-0.014,0.094,-0.988,192,0,0,0,0,0,0,0,0,0,0
 2023-06-24 15:06:59.116,-57718.79795,32590.02806,5087.838183,26971.60417,21550.92615,-59163.63706,14371.38937,-50957.03762,-0.014,0.094,-0.988,192,0,0,0,0,0,0,0,0,0,0
 2023-06-24 15:06:59.116,-57931.96654,31751.61412,4261.829467,26108.31274,20723.39752,-58728.31449,13554.41076,-50685.64274,-0.014,0.094,-0.988,192,0,0,0,0,0,0,0,0,0,0
 2023-06-24 15:06:59.116,-58169.45382,32198.33609,4729.696182,26489.94642,21189.96783,-59479.9366,14021.78574,-51144.34524,-0.012,0.094,-0.99,192,255,160,2,240,225,16,0,0,0,0
 2023-06-24 15:06:59.116,-58151.01363,33216.72627,5756.043584,27490.99165,22211.12963,-60398.05685,15025.62493,-51714.6947,-0.012,0.094,-0.99,192,0,0,0,0,0,0,0,0,0,0
 2023-06-24 15:06:59.116,-57911.20176,33497.7324,6021.537605,27809.05697,22468.2641,-60254.91628,15280.45717,-51631.74738,-0.012,0.094,-0.99,192,0,0,0,0,0,0,0,0,0,0
 2023-06-24 15:06:59.116,-57798.9066,32557.41686,5061.843105,26922.94442,21512.77173,-59193.23077,14332.98908,-50970.67219,-0.012,0.094,-0.99,192,0,0,0,0,0,0,0,0,0,0
 2023-06-24 15:06:59.116,-58002.41923,31757.98437,4273.78765,26111.50904,20732.96407,-58733.72361,13561.16099,-50684.32399,-0.012,0.094,-0.99,192,0,0,0,0,0,0,0,0,0,0
 2023-06-24 15:06:59.116,-58236.46435,32218.3856,4755.534799,26502.75397,21213.77244,-59471.6441,14045.79151,-51134.75634,-0.012,0.094,-0.99,192,0,0,0,0,0,0,0,0,0,0
 2023-06-24 15:06:59.116,-58223.09801,33215.56398,5757.384689,27483.19089,22213.81184,-60399.59912,15041.44997,-51712.12425,-0.012,0.094,-0.99,192,0,0,0,0,0,0,0,0,0,0
 2023-06-24 15:06:59.116,-57989.76815,33481.08035,6002.426863,27807.4253,22466.3642,-60276.15044,15282.49118,-51641.76096,-0.012,0.094,-0.99,192,0,0,0,0,0,0,0,0,0,0
 2023-06-24 15:06:59.116,-57877.24946,32522.83871,5027.555529,26906.27002,21494.80092,-59221.1928,14312.69369,-50987.77127,-0.012,0.094,-0.99,192,0,0,0,0,0,0,0,0,0,0
 2023-06-24 15:06:59.116,-58077.007,31697.90288,4218.958821,26057.68604,20682.27031,-58746.32999,13518.06683,-50692.77295,-0.012,0.094,-0.99,192,0,0,0,0,0,0,0,0,0,0
 2023-06-24 15:06:59.116,-58315.29895,32120.3285,4665.054937,26415.51511,21120.83389,-59478.37198,13949.36609,-51139.13728,-0.02,0.09,-0.988,192,255,96,2,208,225,32,0,0,0,0
 2023-06-24 15:06:59.116,-58287.58279,33219.92257,5768.091174,27485.56018,22216.11407,-60399.06268,15041.00293,-51708.34681,-0.02,0.09,-0.988,192,0,0,0,0,0,0,0,0,0,0
 2023-06-24 15:06:59.116,-58042.54061,33561.12195,6086.894105,27876.17926,22538.87326,-60279.4585,15356.20723,-51637.51413,-0.02,0.09,-0.988,192,0,0,0,0,0,0,0,0,0,0
 2023-06-24 15:06:59.116,-57923.24935,32615.64316,5119.465902,26995.98992,21582.55387,-59227.5854,14402.86063,-50982.63037,-0.02,0.09,-0.988,192,0,0,0,0,0,0,0,0,0,0
 2023-06-24 15:06:59.116,-58116.7037,31782.43718,4301.861441,26137.10179,20757.86391,-58736.91991,13579.53412,-50676.79145,-0.02,0.09,-0.988,192,0,0,0,0,0,0,0,0,0,0
 2023-06-24 15:06:59.116,-58363.914,32131.88435,4672.65453,26432.10011,21124.67839,-59466.5479,13932.24465,-51122.39583,-0.02,0.09,-0.988,192,0,0,0,0,0,0,0,0,0,0
 2023-06-24 15:06:59.116,-58351.777,33161.04807,5704.791034,27440.9908,22152.88098,-60403.04129,14962.77183,-51703.49648,-0.02,0.09,-0.988,192,0,0,0,0,0,0,0,0,0,0
 2023-06-24 15:06:59.116,-58117.03898,33440.57899,5965.032395,27758.27381,22412.56355,-60307.62169,15239.64289,-51651.32751,-0.02,0.09,-0.988,192,0,0,0,0,0,0,0,0,0,0
 2023-06-24 15:06:59.116,-57982.30266,32579.92507,5083.993683,26944.82678,21535.14582,-59253.46872,14377.26788,-50993.85095,-0.02,0.09,-0.988,192,0,0,0,0,0,0,0,0,0,0
 2023-06-24 15:06:59.116,-58164.84936,31785.11939,4300.341523,26132.7879,20751.09133,-58742.86547,13597.52728,-50672.70108,-0.02,0.09,-0.988,192,0,0,0,0,0,0,0,0,0,0
 2023-06-24 15:06:59.116,-58406.67288,32167.37892,4705.533946,26458.11754,21154.87559,-59455.23792,13983.31839,-51105.63202,-0.014,0.094,-0.986,192,255,144,2,240,225,48,0,0,0,0
 2023-06-24 15:06:59.116,-58391.00431,33233.13245,5775.735471,27516.24912,22230.03921,-60395.4864,15037.49371,-51686.55386,-0.014,0.094,-0.986,192,0,0,0,0,0,0,0,0,0,0
 2023-06-24 15:06:59.116,-58156.86979,33520.88881,6044.604605,27839.433,22498.01427,-60315.02012,15307.63689,-51642.40916,-0.014,0.094,-0.986,192,0,0,0,0,0,0,0,0,0,0
 2023-06-24 15:06:59.116,-58036.70681,32554.82406,5057.260997,26927.59358,21513.53169,-59281.76603,14328.04934,-51003.26103,-0.014,0.094,-0.986,192,0,0,0,0,0,0,0,0,0,0
 2023-06-24 15:06:59.588,-58219.78995,31741.80171,4258.007319,26096.60042,20720.31298,-58759.60693,13535.41178,-50678.19961,-0.014,0.094,-0.986,192,0,0,0,0,0,0,0,0,0,0
 2023-06-24 15:06:59.588,-58453.92447,32166.23898,4703.14231,26465.44891,21163.12339,-59454.76853,13980.9491,-51099.90997,-0.014,0.094,-0.986,192,0,0,0,0,0,0,0,0,0,0
 2023-06-24 15:06:59.588,-58440.93811,33239.34623,5779.915247,27521.77,22240.76804,-60395.53111,15053.13993,-51684.92218,-0.014,0.094,-0.986,192,0,0,0,0,0,0,0,0,0,0
 2023-06-24 15:06:59.588,-58206.80358,33528.64486,6049.209064,27865.02574,22514.88984,-60327.69356,15319.8633,-51651.28281,-0.014,0.094,-0.986,192,0,0,0,0,0,0,0,0,0,0
 2023-06-24 15:06:59.588,-58078.45987,32598.49937,5102.7915,26984.16585,21567.55585,-59293.74657,14375.32328,-51011.46412,-0.014,0.094,-0.986,192,0,0,0,0,0,0,0,0,0,0
 2023-06-24 15:06:59.588,-58259.30783,31787.04164,4305.281258,26154.75966,20768.45864,-58756.07535,13574.8179,-50673.01401,-0.014,0.094,-0.986,192,0,0,0,0,0,0,0,0,0,0
 2023-06-24 15:06:59.588,-58508.01569,32132.06317,4669.458231,26440.41496,21132.03211,-59448.84532,13951.64596,-51094.05382,-0.014,0.094,-0.988,192,255,144,2,240,225,32,0,0,0,0
 2023-06-24 15:06:59.588,-58512.62015,33127.27459,5665.78724,27401.04823,22126.70709,-60409.81387,14953.92054,-51690.13014,-0.014,0.094,-0.988,192,0,0,0,0,0,0,0,0,0,0
 2023-06-24 15:06:59.588,-58281.21254,33450.72668,5971.737918,27762.94533,22429.26031,-60359.41069,15254.14917,-51664.44798,-0.014,0.094,-0.988,192,0,0,0,0,0,0,0,0,0,0
 2023-06-24 15:06:59.588,-58152.69001,32521.25174,5022.32522,26892.07666,21484.40736,-59334.71731,14309.60915,-51029.18905,-0.014,0.094,-0.988,192,0,0,0,0,0,0,0,0,0,0
 2023-06-24 15:06:59.588,-58329.69348,31683.3966,4195.6236,26039.29055,20662.66783,-58781.93632,13485.54504,-50683.02759,-0.014,0.094,-0.988,192,0,0,0,0,0,0,0,0,0,0
 2023-06-24 15:06:59.588,-58559.91644,32115.07584,4651.64389,26412.76585,21114.24012,-59447.90655,13922.54399,-51085.91778,-0.014,0.094,-0.988,192,0,0,0,0,0,0,0,0,0,0
 2023-06-24 15:06:59.588,-58551.691,33188.07133,5732.28368,27454.29009,22178.69725,-60404.15888,14983.17897,-51676.94261,-0.014,0.094,-0.988,192,0,0,0,0,0,0,0,0,0,0
 2023-06-24 15:06:59.588,-58313.332,33537.92084,6065.235265,27845.71384,22508.02785,-60364.95392,15315.16943,-51657.22837,-0.014,0.094,-0.988,192,0,0,0,0,0,0,0,0,0,0
 2023-06-24 15:06:59.588,-58178.97566,32605.11549,5107.865346,26979.15905,21563.48784,-59345.28969,14369.33301,-51024.53989,-0.014,0.094,-0.988,192,0,0,0,0,0,0,0,0,0,0
 2023-06-24 15:06:59.588,-58353.6769,31712.05154,4223.563281,26082.54118,20686.04776,-58783.568,13506.95801,-50672.72343,-0.014,0.094,-0.988,192,0,0,0,0,0,0,0,0,0,0
 2023-06-24 15:06:59.588,-58590.136,32062.77276,4600.950134,26358.24995,21053.64454,-59444.84436,13877.50523,-51073.53491,-0.018,0.092,-0.988,192,255,112,2,224,225,32,0,0,0,0
 2023-06-24 15:06:59.589,-58584.86099,33141.93733,5685.635589,27403.70809,22131.75859,-60405.96937,14943.86225,-51668.31483,-0.018,0.092,-0.988,192,0,0,0,0,0,0,0,0,0,0
 2023-06-24 15:06:59.589,-58347.17254,33503.32034,6026.499692,27823.58561,22479.99876,-60382.99178,15275.29392,-51661.49755,-0.018,0.092,-0.988,192,0,0,0,0,0,0,0,0,0,0
 2023-06-24 15:06:59.589,-58201.52857,32630.44001,5134.039239,27005.37765,21589.48291,-59363.01462,14392.2659,-51026.90918,-0.018,0.092,-0.988,192,0,0,0,0,0,0,0,0,0,0
 2023-06-24 15:06:59.589,-58366.70796,31752.35173,4269.786688,26106.43519,20720.04476,-58782.49512,13538.80924,-50661.90519,-0.018,0.092,-0.988,192,0,0,0,0,0,0,0,0,0,0
 2023-06-24 15:06:59.589,-58610.29728,32047.35005,4585.102747,26345.04006,21033.75149,-59438.42941,13852.56068,-51060.97323,-0.018,0.092,-0.988,192,0,0,0,0,0,0,0,0,0,0
 2023-06-24 15:06:59.589,-58616.37695,33076.53613,5619.988515,27346.91231,22064.50219,-60407.86927,14878.63986,-51662.57044,-0.018,0.092,-0.988,192,0,0,0,0,0,0,0,0,0,0
 2023-06-24 15:06:59.589,-58381.8401,33455.50996,5981.684444,27759.05612,22427.94155,-60400.80612,15241.58749,-51666.5267,-0.018,0.092,-0.988,192,0,0,0,0,0,0,0,0,0,0
 2023-06-24 15:06:59.589,-58236.77727,32583.12137,5085.267733,26951.93463,21542.11957,-59387.758,14357.95598,-51039.82848,-0.018,0.092,-0.988,192,0,0,0,0,0,0,0,0,0,0
 2023-06-24 15:06:59.589,-58396.5699,31719.44996,4235.543816,26078.02613,20690.4734,-58787.52426,13503.91817,-50665.57087,-0.018,0.092,-0.988,192,0,0,0,0,0,0,0,0,0,0
 2023-06-24 15:06:59.589,-58637.45465,32023.74661,4564.673253,26318.28503,21012.69615,-59425.15247,13823.61517,-51055.07237,-0.018,0.092,-0.988,192,255,112,2,224,225,32,0,0,0,0
 2023-06-24 15:06:59.589,-58636.71704,33106.39806,5655.639548,27361.12802,22094.87821,-60388.13268,14912.45805,-51650.09816,-0.018,0.092,-0.988,192,0,0,0,0,0,0,0,0,0,0
 2023-06-24 15:06:59.589,-58397.2628,33508.52829,6040.514236,27801.12211,22482.05513,-60391.97718,15301.51252,-51658.83769,-0.018,0.092,-0.988,192,0,0,0,0,0,0,0,0,0,0
 2023-06-24 15:06:59.589,-58248.46724,32623.08629,5131.938175,26982.02008,21581.68216,-59385.8581,14399.8655,-51036.811,-0.018,0.092,-0.988,192,0,0,0,0,0,0,0,0,0,0
 2023-06-24 15:06:59.589,-58414.02661,31665.29169,4183.754824,26032.96501,20640.24903,-58781.31047,13447.07769,-50661.30169,-0.018,0.092,-0.988,192,0,0,0,0,0,0,0,0,0,0
 2023-06-24 15:06:59.589,-58652.07269,31968.31429,4514.582993,26269.17824,20955.81096,-59406.8911,13774.24017,-51043.2036,-0.018,0.092,-0.988,192,0,0,0,0,0,0,0,0,0,0
 2023-06-24 15:06:59.589,-58664.29909,32981.47416,5535.320107,27236.44999,21966.91447,-60385.83045,14798.28534,-51650.56755,-0.018,0.092,-0.988,192,0,0,0,0,0,0,0,0,0,0
 2023-06-24 15:06:59.589,-58430.00811,33376.34008,5907.901336,27685.63064,22356.863,-60409.92563,15170.15131,-51671.82406,-0.018,0.092,-0.988,192,0,0,0,0,0,0,0,0,0,0
 2023-06-24 15:06:59.589,-58265.83454,32585.73652,5096.555364,26960.36124,21549.87562,-59399.96206,14358.49242,-51043.2483,-0.018,0.092,-0.988,192,0,0,0,0,0,0,0,0,0,0
 2023-06-24 15:06:59.589,-58423.79432,31629.90888,4152.57414,25999.86207,20606.20732,-58779.14235,13416.92518,-50654.61852,-0.018,0.092,-0.988,192,0,0,0,0,0,0,0,0,0,0
 2023-06-24 15:06:59.589,-58664.41085,31897.74983,4444.57733,26213.4777,20901.40681,-59397.36925,13711.85645,-51030.61957,-0.022,0.09,-0.99,192,255,80,2,208,225,16,0,0,0,0
 2023-06-24 15:06:59.589,-58672.03279,32972.82403,5528.391067,27250.7104,21979.16323,-60371.74885,14789.81403,-51633.62493,-0.022,0.09,-0.99,192,0,0,0,0,0,0,0,0,0,0
 2023-06-24 15:06:59.589,-58431.99741,33412.34874,5953.007156,27715.09024,22396.69381,-60402.66131,15215.4583,-51657.92127,-0.022,0.09,-0.99,192,0,0,0,0,0,0,0,0,0,0
 2023-06-24 15:06:59.589,-58271.28837,32573.06308,5093.202602,26945.94436,21546.81343,-59405.70645,14357.73246,-51040.90137,-0.022,0.09,-0.99,192,0,0,0,0,0,0,0,0,0,0
 2023-06-24 15:06:59.589,-58418.94399,31653.64643,4187.666379,26024.38194,20639.35496,-58764.949,13442.7191,-50639.10641,-0.022,0.09,-0.99,192,0,0,0,0,0,0,0,0,0,0
 2023-06-24 15:06:59.589,-58661.1922,31891.6478,4446.298414,26202.74886,20895.08127,-59374.10109,13698.22189,-51010.68181,-0.022,0.09,-0.99,192,0,0,0,0,0,0,0,0,0,0
 2023-06-24 15:06:59.589,-58676.95018,32926.19829,5486.414491,27200.95541,21936.44904,-60359.29893,14735.70046,-51620.63856,-0.022,0.09,-0.99,192,0,0,0,0,0,0,0,0,0,0
 2023-06-24 15:06:59.589,-58440.02169,33351.35083,5894.333827,27655.20992,22337.79697,-60411.26673,15145.31853,-51658.36831,-0.022,0.09,-0.99,192,0,0,0,0,0,0,0,0,0,0
 2023-06-24 15:06:59.589,-58269.92491,32563.72006,5084.97716,26929.51583,21533.60355,-59413.82014,14345.99779,-51039.89554,-0.022,0.09,-0.99,192,0,0,0,0,0,0,0,0,0,0
 2023-06-24 15:06:59.589,-58415.25595,31645.62215,4175.954065,26015.88828,20630.79424,-58753.97429,13438.02523,-50626.50003,-0.022,0.09,-0.99,192,0,0,0,0,0,0,0,0,0,0
 2023-06-24 15:06:59.589,-58660.544,31881.09778,4435.681335,26190.25423,20884.33008,-59348.86597,13703.16162,-50988.66534,-0.024,0.09,-0.988,192,255,64,2,208,225,32,0,0,0,0
 2023-06-24 15:06:59.589,-58685.68971,32898.7727,5460.486467,27177.21786,21912.64444,-60339.18236,14720.18835,-51602.22073,-0.024,0.09,-0.988,192,0,0,0,0,0,0,0,0,0,0
 2023-06-24 15:06:59.589,-58448.15772,33384.14084,5925.246289,27710.03875,22387.79782,-60402.05781,15192.54776,-51644.51023,-0.024,0.09,-0.988,192,0,0,0,0,0,0,0,0,0,0
 2023-06-24 15:06:59.589,-58275.93753,32595.45953,5114.257945,26979.40492,21580.45281,-59414.49069,14389.13666,-51032.9665,-0.024,0.09,-0.988,192,0,0,0,0,0,0,0,0,0,0
 2023-06-24 15:06:59.589,-58421.84972,31631.49585,4159.167905,26002.54428,20619.30545,-58741.41261,13420.90379,-50610.36207,-0.024,0.09,-0.988,192,0,0,0,0,0,0,0,0,0,0
 2023-06-24 15:06:59.589,-58656.99007,31906.91404,4457.340176,26218.79741,20913.05207,-59317.14884,13712.30348,-50957.23879,-0.024,0.09,-0.988,192,0,0,0,0,0,0,0,0,0,0
 2023-06-24 15:06:59.589,-58687.99194,32888.82618,5443.208568,27167.96424,21903.45787,-60320.80922,14722.24471,-51578.63964,-0.024,0.09,-0.988,192,0,0,0,0,0,0,0,0,0,0
 2023-06-24 15:06:59.589,-58457.90308,33345.22645,5879.760489,27657.51215,22344.99423,-60408.02573,15169.50311,-51639.0564,-0.024,0.09,-0.988,192,0,0,0,0,0,0,0,0,0,0
 2023-06-24 15:06:59.589,-58279.80438,32596.13008,5107.127739,26974.66635,21577.43532,-59427.34294,14392.73529,-51032.98885,-0.024,0.09,-0.988,192,0,0,0,0,0,0,0,0,0,0
 2023-06-24 15:06:59.589,-58428.51054,31575.05769,4096.940648,25958.93603,20561.99557,-58745.65944,13370.27709,-50605.37763,-0.024,0.09,-0.988,192,0,0,0,0,0,0,0,0,0,0
 2023-06-24 15:06:59.589,-58669.01531,31822.13388,4372.649416,26130.59743,20825.99203,-59311.24798,13639.79443,-50944.96768,-0.024,0.092,-0.988,192,255,64,2,224,225,32,0,0,0,0
 2023-06-24 15:06:59.589,-58699.6372,32863.92633,5421.437969,27133.02846,21873.66299,-60310.23685,14689.58881,-51559.97593,-0.024,0.092,-0.988,192,0,0,0,0,0,0,0,0,0,0
 2023-06-24 15:06:59.589,-58472.2529,33343.9077,5880.609856,27653.93587,22335.07005,-60410.70794,15145.89967,-51627.5676,-0.024,0.092,-0.988,192,0,0,0,0,0,0,0,0,0,0
 2023-06-24 15:06:59.589,-58294.62359,32571.11848,5091.682683,26934.9026,21539.16914,-59440.41871,14357.12896,-51027.62443,-0.024,0.092,-0.988,192,0,0,0,0,0,0,0,0,0,0
 2023-06-24 15:06:59.589,-58430.79042,31594.03433,4123.472169,25955.82914,20575.80895,-58735.77997,13394.66284,-50583.80819,-0.024,0.092,-0.988,192,0,0,0,0,0,0,0,0,0,0
 2023-06-24 15:06:59.589,-58671.04932,31820.18928,4370.570704,26134.129,20827.75781,-59290.3044,13627.23275,-50918.41381,-0.024,0.092,-0.988,192,0,0,0,0,0,0,0,0,0,0
 2023-06-24 15:06:59.589,-58705.85098,32834.57849,5391.486632,27106.38518,21839.62129,-60298.94922,14640.19145,-51541.84866,-0.024,0.092,-0.988,192,0,0,0,0,0,0,0,0,0,0
 2023-06-24 15:06:59.589,-58479.2937,33317.39853,5856.134696,27622.53167,22306.59393,-60417.70404,15119.25639,-51621.82321,-0.024,0.092,-0.988,192,0,0,0,0,0,0,0,0,0,0
 2023-06-24 15:06:59.589,-58298.08811,32556.81337,5073.555419,26925.00078,21534.07294,-59458.7695,14333.97255,-51031.82656,-0.024,0.092,-0.988,192,0,0,0,0,0,0,0,0,0,0
 2023-06-24 15:06:59.589,-58428.55524,31589.31811,4114.754989,25946.37435,20568.61169,-58736.94226,13371.59584,-50579.18138,-0.024,0.092,-0.988,192,0,0,0,0,0,0,0,0,0,0
 2023-06-24 15:06:59.589,-58666.89189,31803.29136,4346.542579,26104.87057,20798.78995,-59277.02746,13597.01319,-50906.23211,-0.022,0.088,-0.992,192,255,80,2,192,225,0,0,0,0,0
 2023-06-24 15:06:59.589,-58695.47977,32864.88746,5417.124083,27129.34043,21866.35397,-60281.17958,14660.82211,-51524.92839,-0.022,0.088,-0.992,192,0,0,0,0,0,0,0,0,0,0
 2023-06-24 15:06:59.589,-58461.74758,33394.08736,5929.873101,27694.97367,22380.55585,-60409.63506,15171.3136,-51610.06619,-0.022,0.088,-0.992,192,0,0,0,0,0,0,0,0,0,0
 2023-06-24 15:06:59.589,-58272.13773,32660.05607,5170.718452,27021.00152,21624.39634,-59458.94831,14429.34745,-51023.24349,-0.022,0.088,-0.992,192,0,0,0,0,0,0,0,0,0,0
 2023-06-24 15:06:59.589,-58405.06356,31608.63001,4127.473131,25976.34804,20581.88863,-58730.77318,13389.23137,-50566.39618,-0.022,0.088,-0.992,192,0,0,0,0,0,0,0,0,0,0
 2023-06-24 15:06:59.589,-58642.95317,31820.83748,4365.943893,26122.37199,20813.25153,-59257.11206,13626.49514,-50881.26521,-0.022,0.088,-0.992,192,0,0,0,0,0,0,0,0,0,0
 2023-06-24 15:06:59.589,-58678.11247,32848.92831,5400.494385,27117.76222,21846.8856,-60270.38369,14650.24974,-51505.61649,-0.022,0.088,-0.992,192,0,0,0,0,0,0,0,0,0,0
 2023-06-24 15:06:59.589,-58452.35985,33363.66664,5899.742949,27666.16227,22344.81541,-60418.19577,15154.92978,-51605.12645,-0.022,0.088,-0.992,192,0,0,0,0,0,0,0,0,0,0
 2023-06-24 15:06:59.589,-58250.92593,32720.0258,5240.165322,27084.36872,21684.41077,-59467.17375,14493.04992,-51017.27557,-0.022,0.088,-0.992,192,0,0,0,0,0,0,0,0,0,0
 2023-06-24 15:06:59.589,-58371.35713,31704.98838,4228.30185,26076.97559,20676.4365,-58717.04921,13479.08538,-50545.43025,-0.022,0.088,-0.992,192,0,0,0,0,0,0,0,0,0,0
 2023-06-24 15:06:59.589,-58620.66849,31805.8171,4349.493009,26115.51,20795.30308,-59240.21414,13599.6954,-50863.18265,-0.022,0.09,-0.992,192,255,80,2,208,225,0,0,0,0,0
 2023-06-24 15:06:59.589,-58669.43999,32778.63208,5334.44498,27044.85083,21778.2434,-60263.78992,14581.8534,-51495.66996,-0.022,0.09,-0.992,192,0,0,0,0,0,0,0,0,0,0
 2023-06-24 15:06:59.589,-58434.65727,33391.15928,5931.393019,27686.77058,22374.38677,-60419.64864,15178.77909,-51596.47633,-0.022,0.09,-0.992,192,0,0,0,0,0,0,0,0,0,0
 2023-06-24 15:06:59.589,-58235.8385,32711.73331,5228.184787,27070.37652,21673.14549,-59483.1776,14480.73411,-51021.16478,-0.022,0.09,-0.992,192,0,0,0,0,0,0,0,0,0,0
 2023-06-24 15:06:59.589,-58355.15211,31671.8184,4192.606114,26036.27307,20644.49586,-58720.98311,13451.16805,-50543.68681,-0.022,0.09,-0.992,192,0,0,0,0,0,0,0,0,0,0
 2023-06-24 15:06:59.589,-58589.95719,31862.88111,4407.406379,26171.07644,20859.92198,-59219.40466,13659.10633,-50843.66957,-0.022,0.09,-0.992,192,0,0,0,0,0,0,0,0,0,0
 2023-06-24 15:06:59.589,-58633.40898,32878.09734,5429.708115,27152.20626,21882.84956,-60240.65587,14685.40903,-51474.3464,-0.022,0.09,-0.992,192,0,0,0,0,0,0,0,0,0,0
 2023-06-24 15:06:59.589,-58406.44937,33429.98426,5965.971168,27739.6101,22418.48676,-60416.13941,15213.84897,-51588.07207,-0.022,0.09,-0.992,192,0,0,0,0,0,0,0,0,0,0
 2023-06-24 15:06:59.589,-58214.0679,32679.52444,5193.070196,27050.95286,21648.24565,-59496.11926,14443.83138,-51024.09286,-0.022,0.09,-0.992,192,0,0,0,0,0,0,0,0,0,0
 2023-06-24 15:06:59.589,-58338.9918,31574.09657,4096.806538,25942.26163,20549.74682,-58726.21342,13358.11774,-50541.47399,-0.022,0.09,-0.992,192,0,0,0,0,0,0,0,0,0,0
 2023-06-24 15:06:59.589,-58578.78132,31751.32355,4296.385264,26056.25553,20746.8445,-59213.68262,13558.03174,-50833.7454,-0.016,0.096,-0.992,192,255,128,3,0,225,0,0,0,0,0
 2023-06-24 15:06:59.589,-58631.06205,32754.35808,5308.472253,27019.54866,21756.60691,-60243.87452,14563.39086,-51471.46302,-0.016,0.096,-0.992,192,0,0,0,0,0,0,0,0,0,0
 2023-06-24 15:06:59.589,-58402.87309,33376.74241,5913.221051,27667.97276,22364.77552,-60430.84686,15172.65471,-51592.90005,-0.016,0.096,-0.992,192,0,0,0,0,0,0,0,0,0,0
 2023-06-24 15:06:59.589,-58197.86289,32721.29985,5229.995278,27084.21225,21687.92,-59510.55849,14487.93137,-51027.44562,-0.016,0.096,-0.992,192,0,0,0,0,0,0,0,0,0,0
 2023-06-24 15:06:59.589,-58309.66631,31670.38788,4182.033739,26035.89309,20637.72328,-58715.93162,13438.78519,-50529.4711,-0.016,0.096,-0.992,192,0,0,0,0,0,0,0,0,0,0
 2023-06-24 15:06:59.589,-58560.0282,31748.99897,4284.15886,26054.48974,20734.95337,-59196.49413,13533.40012,-50821.36253,-0.016,0.096,-0.992,192,0,0,0,0,0,0,0,0,0,0
 2023-06-24 15:06:59.589,-58619.70736,32740.41059,5289.048587,26997.24162,21732.28821,-60231.20108,14529.3715,-51461.33768,-0.016,0.096,-0.992,192,0,0,0,0,0,0,0,0,0,0
 2023-06-24 15:06:59.589,-58395.94405,33362.90668,5897.172498,27660.35082,22355.09722,-60436.5242,15154.72861,-51595.11287,-0.016,0.096,-0.992,192,0,0,0,0,0,0,0,0,0,0
 2023-06-24 15:06:59.589,-58188.54221,32686.18526,5197.764063,27063.69335,21670.23977,-59528.46223,14466.96543,-51040.25317,-0.016,0.096,-0.992,192,0,0,0,0,0,0,0,0,0,0
 2023-06-24 15:06:59.589,-58298.28927,31600.65044,4119.404151,25983.25473,20585.53196,-58725.38641,13376.06619,-50538.30004,-0.016,0.096,-0.992,192,0,0,0,0,0,0,0,0,0,0
 2023-06-24 15:06:59.589,-58545.11959,31693.94662,4234.336821,26025.54423,20698.45297,-59192.24729,13483.01929,-50819.64145,-0.018,0.096,-0.992,192,255,112,3,0,225,0,0,0,0,0
 2023-06-24 15:06:59.589,-58598.49555,32753.12874,5304.873622,27030.18809,21759.04325,-60225.65785,14549.8457,-51455.1239,-0.018,0.096,-0.992,192,0,0,0,0,0,0,0,0,0,0
 2023-06-24 15:06:59.589,-58374.73224,33404.59268,5941.898339,27694.37017,22393.40811,-60450.58345,15193.75476,-51600.58905,-0.018,0.096,-0.992,192,0,0,0,0,0,0,0,0,0,0
 2023-06-24 15:06:59.589,-58164.87171,32738.37659,5250.737697,27096.90804,21704.95203,-59552.84799,14502.05767,-51051.20552,-0.018,0.096,-0.992,192,0,0,0,0,0,0,0,0,0,0
 2023-06-24 15:06:59.590,-58272.58477,31612.60863,4130.848245,25984.70759,20583.85558,-58733.76831,13372.13229,-50537.92006,-0.018,0.096,-0.992,192,0,0,0,0,0,0,0,0,0,0
 2023-06-24 15:06:59.590,-58526.61234,31677.07106,4219.517615,25989.44616,20670.08861,-59191.15206,13466.83663,-50813.69589,-0.018,0.096,-0.992,192,0,0,0,0,0,0,0,0,0,0
 2023-06-24 15:06:59.590,-58595.61218,32690.83443,5245.90972,26967.13382,21698.49237,-60236.96783,14498.12376,-51461.78472,-0.018,0.096,-0.992,192,0,0,0,0,0,0,0,0,0,0
 2023-06-24 15:06:59.590,-58383.65059,33328.37323,5870.216295,27637.84261,22327.51516,-60483.01583,15120.17281,-51625.64535,-0.018,0.096,-0.992,192,0,0,0,0,0,0,0,0,0,0
 2023-06-24 15:06:59.590,-58164.53644,32745.03741,5264.819296,27110.07322,21721.71583,-59586.06268,14518.12858,-51076.84297,-0.018,0.096,-0.992,192,0,0,0,0,0,0,0,0,0,0
 2023-06-24 15:06:59.590,-58263.30879,31640.52595,4162.028928,26013.02725,20619.3278,-58744.25128,13427.16228,-50546.34667,-0.018,0.096,-0.992,192,0,0,0,0,0,0,0,0,0,0
 2023-06-24 15:06:59.590,-58513.51422,31708.60937,4253.045231,26014.92715,20704.04091,-59181.69727,13513.55177,-50805.93983,-0.014,0.088,-0.992,192,255,144,2,192,225,0,0,0,0,0
 2023-06-24 15:06:59.590,-58579.54128,32747.16082,5299.173927,27018.20755,21751.13073,-60225.88137,14552.52791,-51450.43003,-0.014,0.088,-0.992,192,0,0,0,0,0,0,0,0,0,0
 2023-06-24 15:06:59.590,-58365.52332,33404.92796,5941.250138,27703.84731,22399.89011,-60488.55907,15195.90052,-51620.16918,-0.014,0.088,-0.992,192,0,0,0,0,0,0,0,0,0,0
 2023-06-24 15:06:59.590,-58153.78525,32767.50091,5282.790099,27132.02263,21745.40868,-59608.36972,14537.19461,-51080.01692,-0.014,0.088,-0.992,192,0,0,0,0,0,0,0,0,0,0
 2023-06-24 15:06:59.590,-58252.57996,31625.32677,4146.405059,26009.45097,20607.99546,-58756.29887,13394.23816,-50545.20673,-0.014,0.088,-0.992,192,0,0,0,0,0,0,0,0,0,0
 2023-06-24 15:06:59.590,-58505.93698,31672.13132,4215.695466,26001.20318,20675.18481,-59182.61369,13462.38863,-50799.8378,-0.014,0.088,-0.992,192,0,0,0,0,0,0,0,0,0,0
 2023-06-24 15:06:59.590,-58581.50823,32705.87715,5260.594816,26988.81501,21722.69931,-60232.27396,14510.37252,-51447.30079,-0.014,0.088,-0.992,192,0,0,0,0,0,0,0,0,0,0
 2023-06-24 15:06:59.590,-58370.9548,33408.6607,5951.151961,27710.32932,22410.14956,-60508.07214,15196.74989,-51626.53942,-0.014,0.088,-0.992,192,0,0,0,0,0,0,0,0,0,0
 2023-06-24 15:06:59.590,-58152.93588,32820.98863,5343.02805,27181.79997,21798.8517,-59630.45324,14586.21199,-51091.52807,-0.014,0.088,-0.992,192,0,0,0,0,0,0,0,0,0,0
 2023-06-24 15:06:59.590,-58247.57317,31673.62889,4197.858774,26048.92415,20654.08476,-58759.09284,13446.22832,-50545.31849,-0.014,0.088,-0.992,192,0,0,0,0,0,0,0,0,0,0
 2023-06-24 15:06:59.590,-58515.05649,31629.46184,4173.316559,25948.69893,20629.96723,-59176.93635,13414.51119,-50798.16142,-0.02,0.09,-0.99,192,255,96,2,208,225,16,0,0,0,0
 2023-06-24 15:06:59.590,-58598.58496,32657.61973,5206.637705,26935.61786,21666.73054,-60230.10584,14446.17831,-51448.8207,-0.02,0.09,-0.99,192,0,0,0,0,0,0,0,0,0,0
 2023-06-24 15:06:59.590,-58393.75358,33361.00678,5893.327998,27660.19436,22351.38683,-60524.61243,15140.64701,-51640.71043,-0.02,0.09,-0.99,192,0,0,0,0,0,0,0,0,0,0
 2023-06-24 15:06:59.590,-58174.41591,32813.94783,5325.839558,27172.81457,21782.11025,-59656.38127,14568.04002,-51110.43764,-0.02,0.09,-0.99,192,0,0,0,0,0,0,0,0,0,0
 2023-06-24 15:07:00.068,-58268.62851,31654.07111,4165.851076,26024.82897,20622.45704,-58773.71088,13413.88534,-50555.46618,-0.02,0.09,-0.99,192,0,0,0,0,0,0,0,0,0,0
 2023-06-24 15:07:00.068,-58531.90971,31637.01673,4170.902571,25947.46959,20623.23935,-59171.57193,13421.06025,-50795.2557,-0.02,0.09,-0.99,192,0,0,0,0,0,0,0,0,0,0
 2023-06-24 15:07:00.068,-58624.58004,32631.73641,5180.262647,26884.2759,21623.63638,-60229.68116,14420.22794,-51450.45238,-0.02,0.09,-0.99,192,0,0,0,0,0,0,0,0,0,0
 2023-06-24 15:07:00.068,-58419.18986,33373.12143,5906.023789,27646.85037,22353.13026,-60537.6882,15146.01143,-51647.68417,-0.02,0.09,-0.99,192,0,0,0,0,0,0,0,0,0,0
 2023-06-24 15:07:00.068,-58200.76861,32802.59315,5310.036875,27161.19166,21772.5884,-59681.28111,14550.98564,-51124.31808,-0.02,0.09,-0.99,192,0,0,0,0,0,0,0,0,0,0
 2023-06-24 15:07:00.068,-58282.12896,31675.41703,4181.072614,26056.81432,20652.47543,-58778.27064,13421.75316,-50556.11438,-0.02,0.09,-0.99,192,0,0,0,0,0,0,0,0,0,0
 2023-06-24 15:07:00.068,-58536.24595,31685.02828,4214.153196,25999.97383,20676.70473,-59154.96458,13451.97272,-50782.87283,-0.022,0.094,-0.99,192,255,80,2,240,225,16,0,0,0,0
 2023-06-24 15:07:00.068,-58618.9474,32766.33862,5312.272049,27027.61764,21764.18415,-60206.34594,14547.2976,-51431.4087,-0.022,0.094,-0.99,192,0,0,0,0,0,0,0,0,0,0
 2023-06-24 15:07:00.068,-58420.79919,33465.94822,6000.124633,27748.61786,22446.60526,-60535.1848,15236.46894,-51644.42082,-0.022,0.094,-0.99,192,0,0,0,0,0,0,0,0,0,0
 2023-06-24 15:07:00.068,-58208.81524,32829.99639,5340.859931,27183.07402,21791.45328,-59695.98856,14586.56962,-51134.1752,-0.022,0.094,-0.99,192,0,0,0,0,0,0,0,0,0,0
 2023-06-24 15:07:00.068,-58289.70621,31653.78054,4164.711137,26029.85812,20622.36764,-58783.88092,13415.74054,-50559.44479,-0.022,0.094,-0.99,192,0,0,0,0,0,0,0,0,0,0
 2023-06-24 15:07:00.068,-58545.43251,31637.06143,4169.784983,25955.04683,20628.15674,-59150.58364,13425.46355,-50778.60365,-0.022,0.094,-0.99,192,0,0,0,0,0,0,0,0,0,0
 2023-06-24 15:07:00.068,-58639.4663,32666.58278,5214.751388,26929.26996,21670.19506,-60209.654,14477.98484,-51431.34164,-0.022,0.094,-0.99,192,0,0,0,0,0,0,0,0,0,0
 2023-06-24 15:07:00.068,-58439.88758,33404.43622,5942.188912,27692.49263,22391.75408,-60553.35677,15196.12404,-51652.24393,-0.022,0.094,-0.99,192,0,0,0,0,0,0,0,0,0,0
 2023-06-24 15:07:00.068,-58214.51494,32842.08868,5358.763678,27210.3208,21810.36285,-59714.83108,14607.24498,-51139.98665,-0.022,0.094,-0.99,192,0,0,0,0,0,0,0,0,0,0
 2023-06-24 15:07:00.068,-58290.06383,31644.05753,4163.481791,26027.01944,20617.36084,-58789.26769,13420.21089,-50556.56142,-0.022,0.094,-0.99,192,0,0,0,0,0,0,0,0,0,0
