 Timestamp_formatted, EXG Channel 0, EXG Channel 1, EXG Channel 2, EXG Channel 3, EXG Channel 4, EXG Channel 5, EXG Channel 6, EXG Channel 7, Accel Channel 0, Accel Channel 1, Accel Channel 2, Other, Other.1, Other.2, Other.3, Other.4, Other.5, Other.6, Analog Channel 0, Analog Channel 1, Analog Channel 2, Other.7
 2023-06-24 15:05:26.182,-70312.64249,37040.66271,9526.067618,33327.59092,26542.09304,-56389.74087,20363.0874,-72926.6343,-0.018,0.09,-0.996,192,0,0,0,0,0,0,0,0,0,0
 2023-06-24 15:05:26.182,-70310.76495,35335.58224,7822.842338,31667.81743,24846.26619,-55145.50866,18657.53754,-72134.37672,-0.018,0.09,-0.996,192,0,0,0,0,0,0,0,0,0,0
 2023-06-24 15:05:26.182,-70599.48243,35343.76298,7864.595397,31575.1471,24882.02898,-55471.91119,18687.04184,-72357.44713,-0.018,0.09,-0.996,192,0,0,0,0,0,0,0,0,0,0
 2023-06-24 15:05:26.182,-70787.05827,36765.78096,9306.372321,32895.26348,26311.5348,-56786.97607,20130.18222,-73204.08651,-0.02,0.092,-0.992,192,255,96,2,224,225,0,0,0,0,0
 2023-06-24 15:05:26.182,-70611.97705,37800.13028,10322.01324,33959.11711,27324.98524,-57358.64429,21148.19242,-73568.33053,-0.02,0.092,-0.992,192,0,0,0,0,0,0,0,0,0,0
 2023-06-24 15:05:26.182,-70288.54731,37084.74035,9574.570903,33362.41494,26580.09101,-56405.63296,20397.06205,-72956.92092,-0.02,0.092,-0.992,192,0,0,0,0,0,0,0,0,0,0
 2023-06-24 15:05:26.182,-70280.7242,35370.83094,7861.68967,31690.25859,24869.53436,-55148.39204,18682.88442,-72156.25908,-0.02,0.092,-0.992,192,0,0,0,0,0,0,0,0,0,0
 2023-06-24 15:05:26.182,-70567.74295,35373.02141,7893.384444,31597.27533,24899.93273,-55456.98022,18713.4169,-72369.60648,-0.02,0.092,-0.992,192,0,0,0,0,0,0,0,0,0,0
 2023-06-24 15:05:26.182,-70755.47525,36810.5068,9348.348897,32941.621,26347.58816,-56768.42413,20163.28516,-73215.06121,-0.02,0.092,-0.992,192,0,0,0,0,0,0,0,0,0,0
 2023-06-24 15:05:26.182,-70584.90909,37854.89206,10379.09959,34007.19571,27371.56628,-57357.19143,21187.46444,-73590.63758,-0.02,0.092,-0.992,192,0,0,0,0,0,0,0,0,0,0
 2023-06-24 15:05:26.182,-70261.30054,37158.94814,9657.831151,33416.97555,26647.10154,-56419.02166,20466.39716,-72990.49324,-0.02,0.092,-0.992,192,0,0,0,0,0,0,0,0,0,0
 2023-06-24 15:05:26.182,-70252.42689,35397.47422,7898.212421,31709.99518,24893.69659,-55155.85752,18712.67929,-72187.01508,-0.02,0.092,-0.992,192,0,0,0,0,0,0,0,0,0,0
 2023-06-24 15:05:26.182,-70541.52436,35340.34316,7870.228037,31558.13742,24867.96974,-55447.6819,18687.28771,-72389.27601,-0.02,0.092,-0.992,192,0,0,0,0,0,0,0,0,0,0
 2023-06-24 15:05:26.182,-70732.92234,36750.2465,9300.024426,32879.99724,26289.31717,-56753.67197,20102.55547,-73230.81919,-0.024,0.092,-0.99,192,255,64,2,224,225,16,0,0,0,0
 2023-06-24 15:05:26.182,-70560.74686,37846.82308,10377.62438,34009.85557,27371.74509,-57352.49756,21183.44112,-73613.59282,-0.024,0.092,-0.99,192,0,0,0,0,0,0,0,0,0,0
 2023-06-24 15:05:26.182,-70240.96045,37141.58084,9636.239366,33423.61402,26640.44072,-56434.84669,20455.4001,-73027.48537,-0.024,0.092,-0.99,192,0,0,0,0,0,0,0,0,0,0
 2023-06-24 15:05:26.182,-70222.3638,35431.06889,7921.52529,31758.23024,24931.6275,-55159.99259,18745.04462,-72214.843,-0.024,0.092,-0.99,192,0,0,0,0,0,0,0,0,0,0
 2023-06-24 15:05:26.182,-70514.74697,35337.728,7860.236807,31569.55917,24870.98722,-55440.12701,18693.16622,-72411.38189,-0.024,0.092,-0.99,192,0,0,0,0,0,0,0,0,0,0
 2023-06-24 15:05:26.182,-70705.4744,36768.88785,9313.1449,32900.76201,26316.65335,-56737.57872,20133.1103,-73248.92411,-0.024,0.092,-0.99,192,0,0,0,0,0,0,0,0,0,0
 2023-06-24 15:05:26.182,-70544.43008,37819.50925,10343.8956,33979.47955,27346.88995,-57358.42077,21162.07286,-73646.78516,-0.024,0.092,-0.99,192,0,0,0,0,0,0,0,0,0,0
 2023-06-24 15:05:26.182,-70243.84382,37017.03692,9509.683789,33294.0186,26515.27095,-56472.44233,20330.31974,-73083.5212,-0.024,0.092,-0.99,192,0,0,0,0,0,0,0,0,0,0
 2023-06-24 15:05:26.182,-70220.24038,35304.24509,7799.082434,31633.14988,24804.58019,-55185.6524,18630.7378,-72264.1286,-0.024,0.092,-0.99,192,0,0,0,0,0,0,0,0,0,0
 2023-06-24 15:05:26.182,-70497.55847,35273.44439,7800.557649,31500.31346,24799.39458,-55437.06482,18628.39086,-72440.86384,-0.024,0.092,-0.99,192,0,0,0,0,0,0,0,0,0,0
 2023-06-24 15:05:26.182,-70690.0964,36690.92497,9237.238376,32818.30642,26229.95093,-56734.36007,20051.1241,-73278.02608,-0.02,0.096,-0.986,192,255,96,3,0,225,48,0,0,0,0
 2023-06-24 15:05:26.182,-70533.88006,37756.36557,10287.03276,33911.97728,27277.71131,-57370.98245,21095.03998,-73687.08535,-0.02,0.096,-0.986,192,0,0,0,0,0,0,0,0,0,0
 2023-06-24 15:05:26.182,-70219.36866,37065.22728,9562.9927,33338.8115,26562.76841,-56492.22362,20378.30894,-73125.22955,-0.02,0.096,-0.986,192,0,0,0,0,0,0,0,0,0,0
 2023-06-24 15:05:26.182,-70188.36679,35349.93206,7842.958908,31675.39468,24847.22732,-55197.69999,18665.07008,-72298.37147,-0.02,0.096,-0.986,192,0,0,0,0,0,0,0,0,0,0
 2023-06-24 15:05:26.182,-70466.08722,35272.66208,7798.166013,31500.1123,24793.04669,-55432.37095,18609.68245,-72465.00372,-0.02,0.096,-0.986,192,0,0,0,0,0,0,0,0,0,0
 2023-06-24 15:05:26.182,-70659.16159,36700.49151,9246.626108,32827.96238,26232.7002,-56722.11131,20047.63723,-73294.43226,-0.02,0.096,-0.986,192,0,0,0,0,0,0,0,0,0,0
 2023-06-24 15:05:26.182,-70500.4642,37818.83869,10346.91308,33968.08016,27336.89872,-57371.83182,21152.99805,-73708.8783,-0.02,0.096,-0.986,192,0,0,0,0,0,0,0,0,0,0
 2023-06-24 15:05:26.182,-70178.93436,37191.64874,9686.039053,33445.78695,26680.74091,-56502.12544,20492.41459,-73152.20811,-0.02,0.096,-0.986,192,0,0,0,0,0,0,0,0,0,0
 2023-06-24 15:05:26.182,-70134.11911,35519.17947,8009.814681,31826.8948,25007.91401,-55189.87688,18815.09499,-72312.60953,-0.02,0.096,-0.986,192,0,0,0,0,0,0,0,0,0,0
 2023-06-24 15:05:26.182,-70417.53923,35379.39166,7899.642932,31600.98572,24901.60911,-55410.84622,18710.8241,-72472.4245,-0.02,0.096,-0.986,192,0,0,0,0,0,0,0,0,0,0
 2023-06-24 15:05:26.182,-70619.84487,36747.85486,9287.730967,32875.6163,26288.06547,-56700.69834,20091.53606,-73302.68005,-0.018,0.098,-0.986,192,255,112,3,16,225,48,0,0,0,0
 2023-06-24 15:05:26.182,-70470.17759,37840.36342,10364.48155,33997.74092,27368.16882,-57368.74728,21158.89891,-73727.94434,-0.018,0.098,-0.986,192,0,0,0,0,0,0,0,0,0,0
 2023-06-24 15:05:26.182,-70154.14627,37198.95776,9689.682387,33461.70139,26696.90123,-56517.52579,20500.1483,-73185.44515,-0.018,0.098,-0.986,192,0,0,0,0,0,0,0,0,0,0
 2023-06-24 15:05:26.183,-70108.61577,35492.80441,7981.137393,31807.00175,24991.95486,-55199.7787,18809.37294,-72341.95737,-0.018,0.098,-0.986,192,0,0,0,0,0,0,0,0,0,0
 2023-06-24 15:05:26.659,-70388.52666,35341.05841,7857.062859,31567.07812,24866.74039,-55403.06782,18673.60844,-72485.94731,-0.018,0.098,-0.986,192,0,0,0,0,0,0,0,0,0,0
 2023-06-24 15:05:26.660,-70594.92267,36697.7646,9235.718457,32833.86324,26243.31728,-56691.71294,20041.64696,-73313.78887,-0.018,0.098,-0.986,192,0,0,0,0,0,0,0,0,0,0
 2023-06-24 15:05:26.660,-70444.89776,37837.90473,10362.35814,33992.15299,27365.15133,-57372.34591,21170.83474,-73747.47977,-0.018,0.098,-0.986,192,0,0,0,0,0,0,0,0,0,0
 2023-06-24 15:05:26.660,-70139.34942,37155.66244,9650.946814,33429.42547,26656.93631,-56548.03593,20468.1853,-73221.94555,-0.018,0.098,-0.986,192,0,0,0,0,0,0,0,0,0,0
 2023-06-24 15:05:26.660,-70100.36798,35385.29252,7878.699348,31720.67931,24890.47794,-55232.32284,18699.3353,-72380.58119,-0.018,0.098,-0.986,192,0,0,0,0,0,0,0,0,0,0
 2023-06-24 15:05:26.660,-70373.43924,35269.80105,7794.701492,31496.49131,24796.22064,-55410.73446,18612.1635,-72510.02014,-0.018,0.098,-0.986,192,0,0,0,0,0,0,0,0,0,0
 2023-06-24 15:05:26.660,-70577.13068,36673.20003,9214.886631,32797.4299,26213.25418,-56684.60508,20031.63338,-73328.07163,-0.018,0.096,-0.99,192,255,112,3,0,225,16,0,0,0,0
 2023-06-24 15:05:26.660,-70434.77242,37794.31883,10320.67213,33945.16962,27321.11839,-57382.80653,21137.37418,-73773.4972,-0.018,0.096,-0.99,192,0,0,0,0,0,0,0,0,0,0
 2023-06-24 15:05:26.660,-70114.27076,37232.0607,9722.628858,33507.81304,26732.28404,-56562.05047,20536.6487,-73248.47707,-0.018,0.096,-0.99,192,0,0,0,0,0,0,0,0,0,0
 2023-06-24 15:05:26.660,-70061.85592,35502.57212,7985.518335,31844.66444,25000.64969,-55228.79126,18810.51288,-72395.55685,-0.018,0.096,-0.99,192,0,0,0,0,0,0,0,0,0,0
 2023-06-24 15:05:26.660,-70339.6881,35327.69207,7845.194083,31574.07422,24850.93771,-55391.73548,18670.38979,-72516.36803,-0.018,0.096,-0.99,192,0,0,0,0,0,0,0,0,0,0
 2023-06-24 15:05:26.660,-70551.24736,36692.82486,9237.685411,32827.0236,26229.28038,-56662.67802,20047.45842,-73335.73828,-0.018,0.096,-0.99,192,0,0,0,0,0,0,0,0,0,0
 2023-06-24 15:05:26.660,-70410.36432,37860.07766,10393.73999,34001.71953,27378.00358,-57371.54125,21183.59759,-73791.37859,-0.018,0.096,-0.99,192,0,0,0,0,0,0,0,0,0,0
 2023-06-24 15:05:26.660,-70094.13184,37293.14802,9790.488755,33559.93731,26786.97876,-56572.51109,20587.14129,-73282.1388,-0.018,0.096,-0.99,192,0,0,0,0,0,0,0,0,0,0
 2023-06-24 15:05:26.660,-70032.50808,35581.92081,8068.666824,31923.83431,25080.75834,-55228.99243,18894.13075,-72420.47905,-0.018,0.096,-0.99,192,0,0,0,0,0,0,0,0,0,0
 2023-06-24 15:05:26.660,-70305.51229,35385.91837,7900.201726,31634.78156,24913.50024,-55370.34486,18723.16226,-72525.06286,-0.018,0.096,-0.99,192,0,0,0,0,0,0,0,0,0,0
 2023-06-24 15:05:26.660,-70514.65756,36750.71588,9293.832993,32892.67068,26296.7603,-56631.74321,20101.79551,-73336.43119,-0.018,0.096,-0.99,192,0,0,0,0,0,0,0,0,0,0
 2023-06-24 15:05:26.660,-70373.75216,37948.67998,10482.72228,34103.62114,27479.79343,-57354.86684,21272.57988,-73800.76633,-0.02,0.098,-0.988,192,255,96,3,16,225,32,0,0,0,0
 2023-06-24 15:05:26.660,-70059.77721,37387.83001,9889.104651,33657.81559,26895.31766,-56574.12041,20685.73483,-73302.90357,-0.02,0.098,-0.988,192,0,0,0,0,0,0,0,0,0,0
 2023-06-24 15:05:26.660,-69999.98629,35642.13641,8137.130217,31978.97607,25152.30628,-55228.05366,18948.02081,-72440.84149,-0.02,0.098,-0.988,192,0,0,0,0,0,0,0,0,0,0
 2023-06-24 15:05:26.660,-70294.17995,35281.58042,7806.883193,31538.57965,24824.16032,-55368.71318,18625.6416,-72550.90148,-0.02,0.098,-0.988,192,0,0,0,0,0,0,0,0,0,0
 2023-06-24 15:05:26.660,-70517.29506,36603.73081,9153.75461,32759.56604,26166.71785,-56630.51386,19966.09807,-73363.99089,-0.02,0.098,-0.988,192,0,0,0,0,0,0,0,0,0,0
 2023-06-24 15:05:26.660,-70379.85419,37840.45283,10375.70213,34006.81573,27388.97829,-57366.82503,21190.07959,-73836.50676,-0.02,0.098,-0.988,192,0,0,0,0,0,0,0,0,0,0
 2023-06-24 15:05:26.660,-70064.26991,37317.42201,9820.149519,33600.37161,26836.86785,-56602.32831,20641.52308,-73348.52348,-0.02,0.098,-0.988,192,0,0,0,0,0,0,0,0,0,0
 2023-06-24 15:05:26.660,-69997.99699,35578.63511,8072.757193,31922.18029,25090.10137,-55247.1644,18903.78671,-72480.24761,-0.02,0.098,-0.988,192,0,0,0,0,0,0,0,0,0,0
 2023-06-24 15:05:26.660,-70268.38604,35341.59486,7865.690633,31585.09363,24873.37886,-55349.44598,18706.48786,-72560.93741,-0.02,0.098,-0.988,192,0,0,0,0,0,0,0,0,0,0
 2023-06-24 15:05:26.660,-70490.67414,36646.82497,9196.468794,32781.26958,26194.3446,-56605.85989,20026.49248,-73369.08708,-0.02,0.098,-0.988,192,0,0,0,0,0,0,0,0,0,0
 2023-06-24 15:05:26.660,-70367.69484,37819.44219,10356.18905,33975.88092,27359.07166,-57370.58012,21182.63646,-73859.93139,-0.026,0.1,-0.988,192,255,48,3,32,225,32,0,0,0,0
 2023-06-24 15:05:26.660,-70047.97549,37356.20229,9860.092087,33629.47358,26867.26622,-56623.04838,20671.96616,-73384.6886,-0.026,0.1,-0.988,192,0,0,0,0,0,0,0,0,0,0
 2023-06-24 15:05:26.660,-69977.32162,35613.41442,8111.626877,31955.43968,25115.80588,-55262.94473,18928.44068,-72515.58572,-0.026,0.1,-0.988,192,0,0,0,0,0,0,0,0,0,0
 2023-06-24 15:05:26.660,-70244.53673,35359.85623,7888.802336,31599.75637,24879.72675,-55343.45571,18712.38872,-72589.0112,-0.026,0.1,-0.988,192,0,0,0,0,0,0,0,0,0,0
 2023-06-24 15:05:26.660,-70468.16593,36656.79385,9207.4435,32795.17237,26194.63518,-56590.32543,20016.83653,-73400.15601,-0.026,0.1,-0.988,192,0,0,0,0,0,0,0,0,0,0
 2023-06-24 15:05:26.660,-70342.59383,37893.31471,10433.83902,34051.40746,27417.00738,-57361.3265,21224.47893,-73899.85161,-0.026,0.1,-0.988,192,0,0,0,0,0,0,0,0,0,0
 2023-06-24 15:05:26.660,-70032.23986,37395.27314,9906.203736,33679.40738,26903.02901,-56634.98421,20704.82322,-73441.6632,-0.026,0.1,-0.988,192,0,0,0,0,0,0,0,0,0,0
 2023-06-24 15:05:26.660,-69959.97667,35645.51153,8148.082572,32012.01195,25158.07303,-55270.43256,18960.49308,-72569.87811,-0.026,0.1,-0.988,192,0,0,0,0,0,0,0,0,0,0
 2023-06-24 15:05:26.660,-70236.46775,35315.13039,7851.229054,31584.49013,24848.81429,-55337.5772,18663.4831,-72634.54171,-0.026,0.1,-0.988,192,0,0,0,0,0,0,0,0,0,0
 2023-06-24 15:05:26.660,-70468.23299,36593.80664,9154.827494,32750.53594,26144.3661,-56578.68017,19962.49944,-73437.79635,-0.026,0.1,-0.988,192,0,0,0,0,0,0,0,0,0,0
 2023-06-24 15:05:26.660,-70347.57827,37835.84837,10384.53107,33999.81964,27374.53906,-57366.5121,21187.48679,-73947.1032,-0.024,0.092,-0.982,192,255,64,2,224,225,80,0,0,0,0
 2023-06-24 15:05:26.660,-70041.91816,37337.33741,9855.800552,33611.86041,26848.78133,-56663.7062,20665.59591,-73501.02943,-0.024,0.092,-0.982,192,0,0,0,0,0,0,0,0,0,0
 2023-06-24 15:05:26.660,-69969.05148,35558.31737,8067.929216,31898.82271,25064.75449,-55295.8465,18883.8266,-72625.33279,-0.024,0.092,-0.982,192,0,0,0,0,0,0,0,0,0,0
 2023-06-24 15:05:26.660,-70237.92061,35223.19767,7759.385736,31472.66435,24757.99915,-55338.51598,18582.50273,-72673.5455,-0.024,0.092,-0.982,192,0,0,0,0,0,0,0,0,0,0
 2023-06-24 15:05:26.660,-70467.83065,36524.02449,9081.424365,32668.21446,26080.37306,-56569.15832,19900.20512,-73466.94302,-0.024,0.092,-0.982,192,0,0,0,0,0,0,0,0,0,0
 2023-06-24 15:05:26.661,-70353.45678,37778.89613,10320.49332,33936.89948,27319.84434,-57372.72589,21121.59385,-73982.3519,-0.024,0.092,-0.982,192,0,0,0,0,0,0,0,0,0,0
 2023-06-24 15:05:26.661,-70044.84624,37354.3918,9861.321433,33614.78849,26866.9533,-56681.49819,20675.60949,-73541.12846,-0.024,0.092,-0.982,192,0,0,0,0,0,0,0,0,0,0
 2023-06-24 15:05:26.661,-69958.25558,35640.12475,8136.839645,31983.06644,25158.18479,-55298.14873,18970.77489,-72652.3784,-0.024,0.092,-0.982,192,0,0,0,0,0,0,0,0,0,0
 2023-06-24 15:05:26.661,-70214.74185,35347.2275,7874.541923,31601.43275,24889.71798,-55314.10787,18690.41695,-72678.84286,-0.024,0.092,-0.982,192,0,0,0,0,0,0,0,0,0,0
 2023-06-24 15:05:26.661,-70451.7374,36578.04866,9132.431046,32723.35621,26131.33504,-56542.02331,19925.75317,-73471.18985,-0.024,0.092,-0.982,192,0,0,0,0,0,0,0,0,0,0
 2023-06-24 15:05:26.661,-70343.04086,37828.06996,10374.07045,33984.46399,27369.26405,-57361.88529,21164.95623,-73997.26051,-0.024,0.088,-0.988,192,255,64,2,192,225,32,0,0,0,0
 2023-06-24 15:05:26.661,-70028.95415,37435.95331,9948.694402,33718.1206,26953.49925,-56685.4768,20754.24293,-73565.3801,-0.024,0.088,-0.988,192,0,0,0,0,0,0,0,0,0,0
 2023-06-24 15:05:26.661,-69943.27992,35668.10914,8168.355604,32019.85741,25175.28387,-55302.61908,19002.3579,-72677.27824,-0.024,0.088,-0.988,192,0,0,0,0,0,0,0,0,0,0
 2023-06-24 15:05:26.661,-70202.33663,35325.97099,7854.693574,31595.84482,24857.91145,-55299.48983,18675.6648,-72694.04205,-0.024,0.088,-0.988,192,0,0,0,0,0,0,0,0,0,0
 2023-06-24 15:05:26.661,-70437.96872,36596.71236,9150.357145,32760.48246,26142.13093,-56517.43639,19947.90375,-73479.03532,-0.024,0.088,-0.988,192,0,0,0,0,0,0,0,0,0,0
 2023-06-24 15:05:26.661,-70329.85334,37890.6325,10434.42016,34055.36372,27422.97529,-57350.08357,21243.36615,-74012.48205,-0.024,0.088,-0.988,192,0,0,0,0,0,0,0,0,0,0
 2023-06-24 15:05:26.661,-70017.26419,37507.50125,10018.23068,33782.73949,27013.49133,-56692.78582,20835.8715,-73590.05643,-0.024,0.088,-0.988,192,0,0,0,0,0,0,0,0,0,0
 2023-06-24 15:05:26.661,-69925.15265,35739.61237,8239.54591,32097.9544,25239.0981,-55306.03889,19049.00599,-72695.29375,-0.024,0.088,-0.988,192,0,0,0,0,0,0,0,0,0,0
 2023-06-24 15:05:26.661,-70190.75843,35302.03227,7830.352525,31571.68258,24830.9776,-55293.52192,18647.47925,-72704.05563,-0.024,0.088,-0.988,192,0,0,0,0,0,0,0,0,0,0
 2023-06-24 15:05:26.661,-70429.94445,36551.24891,9103.239668,32709.0511,26100.35552,-56503.71242,19928.34597,-73481.85164,-0.024,0.088,-0.988,192,0,0,0,0,0,0,0,0,0,0
 2023-06-24 15:05:26.661,-70329.67452,37822.01264,10365.30857,33976.23855,27355.83065,-57355.96208,21183.30701,-74027.21185,-0.02,0.092,-0.984,192,255,96,2,224,225,64,0,0,0,0
 2023-06-24 15:05:26.661,-70014.76079,37484.63541,9999.745786,33746.01558,26989.77613,-56709.41552,20802.83562,-73611.69292,-0.02,0.092,-0.984,192,0,0,0,0,0,0,0,0,0,0
 2023-06-24 15:05:26.661,-69916.72604,35737.93599,8241.155236,32075.89323,25236.86293,-55313.66084,19043.57452,-72712.48224,-0.02,0.092,-0.984,192,0,0,0,0,0,0,0,0,0,0
 2023-06-24 15:05:26.661,-70170.17247,35351.27316,7882.007406,31603.60087,24880.39731,-55274.52293,18690.50636,-72703.67565,-0.02,0.092,-0.984,192,0,0,0,0,0,0,0,0,0,0
 2023-06-24 15:05:26.661,-70412.21951,36573.35479,9125.323191,32728.76534,26126.68587,-56479.37137,19939.56655,-73477.58245,-0.02,0.092,-0.984,192,0,0,0,0,0,0,0,0,0,0
 2023-06-24 15:05:26.661,-70311.72607,37891.9736,10437.83998,34032.7214,27430.12785,-57339.44414,21253.46914,-74026.87657,-0.02,0.092,-0.984,192,0,0,0,0,0,0,0,0,0,0
 2023-06-24 15:05:26.661,-69993.7278,37587.49814,10105.91657,33831.39924,27096.72923,-56705.01223,20914.92962,-73618.93488,-0.02,0.092,-0.984,192,0,0,0,0,0,0,0,0,0,0
 2023-06-24 15:05:26.661,-69895.78246,35802.37607,8303.650713,32146.52474,25313.26119,-55307.17883,19124.93487,-72717.33257,-0.02,0.092,-0.984,192,0,0,0,0,0,0,0,0,0,0
 2023-06-24 15:05:26.661,-70154.16862,35353.86596,7881.515668,31627.56194,24895.77531,-55254.83105,18696.1837,-72698.89238,-0.02,0.092,-0.984,192,0,0,0,0,0,0,0,0,0,0
 2023-06-24 15:05:26.661,-70404.41876,36555.18282,9111.219241,32718.14826,26110.77143,-56455.70087,19917.55008,-73469.78169,-0.02,0.092,-0.984,192,0,0,0,0,0,0,0,0,0,0
 2023-06-24 15:05:26.661,-70326.45587,37784.64052,10335.11136,33942.62152,27328.42741,-57343.60157,21140.01168,-74037.33719,-0.016,0.092,-0.988,192,255,128,2,224,225,32,0,0,0,0
 2023-06-24 15:05:26.661,-70011.6092,37505.6684,10023.43864,33778.96205,27025.94126,-56729.42033,20836.49735,-73638.91734,-0.016,0.092,-0.988,192,0,0,0,0,0,0,0,0,0,0
 2023-06-24 15:05:26.661,-69903.56087,35782.46066,8286.104594,32136.42176,25292.63053,-55324.45673,19108.59574,-72730.31893,-0.016,0.092,-0.988,192,0,0,0,0,0,0,0,0,0,0
 2023-06-24 15:05:26.661,-70160.38241,35320.69597,7853.419525,31594.10138,24852.77055,-55253.15467,18665.96415,-72699.98761,-0.016,0.092,-0.988,192,0,0,0,0,0,0,0,0,0,0
 2023-06-24 15:05:26.661,-70415.16994,36484.79718,9043.202882,32646.19799,26034.95431,-56447.0731,19858.98851,-73466.42893,-0.016,0.092,-0.988,192,0,0,0,0,0,0,0,0,0,0
 2023-06-24 15:05:26.661,-70329.56276,37797.87276,10344.67791,33959.74296,27342.62077,-57341.36639,21157.11077,-74037.73952,-0.016,0.092,-0.988,192,0,0,0,0,0,0,0,0,0,0
 2023-06-24 15:05:26.661,-70013.30793,37532.5799,10045.54451,33812.62378,27053.45625,-56743.47958,20852.30003,-73653.62479,-0.016,0.092,-0.988,192,0,0,0,0,0,0,0,0,0,0
 2023-06-24 15:05:26.661,-69905.39371,35765.42863,8264.579864,32129.73858,25275.19617,-55340.25941,19079.06909,-72748.42384,-0.016,0.092,-0.988,192,0,0,0,0,0,0,0,0,0,0
 2023-06-24 15:05:26.661,-70154.57096,35305.72031,7837.572138,31581.62911,24839.44891,-55248.08082,18662.05259,-72705.06146,-0.016,0.092,-0.988,192,0,0,0,0,0,0,0,0,0,0
 2023-06-24 15:05:26.661,-70403.52469,36498.02941,9057.239778,32668.63914,26056.34493,-56427.8953,19870.14203,-73463.72437,-0.016,0.092,-0.988,192,0,0,0,0,0,0,0,0,0,0
 2023-06-24 15:05:26.661,-70315.9282,37858.06601,10410.28028,34027.37934,27403.70809,-57328.15651,21211.47021,-74037.78422,-0.014,0.094,-0.99,192,255,144,2,240,225,16,0,0,0,0
 2023-06-24 15:05:26.661,-70006.69181,37563.40296,10081.9555,33837.70243,27086.38037,-56752.46498,20895.37184,-73667.237,-0.014,0.094,-0.99,192,0,0,0,0,0,0,0,0,0,0
 2023-06-24 15:05:26.661,-69891.35681,35813.82016,8318.246403,32164.69671,25323.38653,-55343.05338,19137.74242,-72755.24113,-0.014,0.094,-0.99,192,0,0,0,0,0,0,0,0,0,0
 2023-06-24 15:05:26.661,-70128.79939,35401.7434,7933.349363,31664.39762,24937.79659,-55222.1528,18765.09413,-72691.20338,-0.014,0.094,-0.99,192,0,0,0,0,0,0,0,0,0,0
 2023-06-24 15:05:26.661,-70380.5918,36564.32468,9119.735255,32721.03163,26119.08628,-56393.2501,19946.49559,-73443.85367,-0.014,0.094,-0.99,192,0,0,0,0,0,0,0,0,0,0
 2023-06-24 15:05:26.661,-70306.51811,37872.86286,10424.04895,34031.67087,27416.42623,-57316.04186,21232.19028,-74032.57627,-0.014,0.094,-0.99,192,0,0,0,0,0,0,0,0,0,0
 2023-06-24 15:05:26.661,-69997.19232,37613.49322,10130.01175,33883.4341,27130.21214,-56758.32114,20946.84791,-73672.46731,-0.014,0.094,-0.99,192,0,0,0,0,0,0,0,0,0,0
 2023-06-24 15:05:26.661,-69870.59204,35926.02592,8430.385104,32275.98605,25432.35128,-55338.09129,19256.58664,-72751.70955,-0.014,0.094,-0.99,192,0,0,0,0,0,0,0,0,0,0
 2023-06-24 15:05:26.661,-70112.10264,35435.29337,7972.26375,31699.31104,24964.79749,-55201.83506,18796.096,-72677.56881,-0.014,0.094,-0.99,192,0,0,0,0,0,0,0,0,0,0
 2023-06-24 15:05:26.661,-70365.12439,36597.49467,9161.421259,32766.96447,26157.33011,-56364.34929,19967.37212,-73421.77015,-0.014,0.094,-0.99,192,0,0,0,0,0,0,0,0,0,0
 2023-06-24 15:05:26.661,-70289.77666,37945.95306,10498.61437,34120.07202,27495.52906,-57295.67943,21291.26594,-74012.92908,-0.014,0.096,-0.988,192,255,144,3,0,225,32,0,0,0,0
 2023-06-24 15:05:26.661,-69984.34007,37679.00618,10202.9455,33942.33095,27195.12161,-56755.90715,21004.80598,-73665.00183,-0.014,0.096,-0.988,192,0,0,0,0,0,0,0,0,0,0
 2023-06-24 15:05:26.661,-69857.49392,35954.6138,8463.13041,32294.82857,25455.97708,-55336.57138,19278.35724,-72747.90975,-0.014,0.096,-0.988,192,0,0,0,0,0,0,0,0,0,0
 2023-06-24 15:05:26.661,-70103.36311,35402.88334,7938.244395,31675.6629,24933.23683,-55188.33461,18747.16803,-72667.21996,-0.014,0.096,-0.988,192,0,0,0,0,0,0,0,0,0,0
 2023-06-24 15:05:26.661,-70367.51603,36493.20143,9052.747077,32661.0172,26044.00677,-56353.77691,19856.66393,-73414.99757,-0.014,0.096,-0.988,192,0,0,0,0,0,0,0,0,0,0
 2023-06-24 15:05:26.661,-70292.74944,37901.71896,10455.14023,34049.50756,27439.71675,-57293.24309,21248.88703,-74011.34211,-0.014,0.096,-0.988,192,0,0,0,0,0,0,0,0,0,0
 2023-06-24 15:05:26.662,-69981.05436,37704.80009,10226.54894,33959.13946,27225.20706,-56766.47952,21041.28403,-73669.15925,-0.014,0.096,-0.988,192,0,0,0,0,0,0,0,0,0,0
 2023-06-24 15:05:26.662,-69850.49782,35976.11618,8478.039024,32325.18224,25487.89537,-55347.99312,19306.85572,-72748.98264,-0.014,0.096,-0.988,192,0,0,0,0,0,0,0,0,0,0
 2023-06-24 15:05:26.662,-70100.30092,35360.97382,7889.003502,31635.49681,24891.99786,-55186.88174,18708.9689,-72659.15098,-0.014,0.096,-0.988,192,0,0,0,0,0,0,0,0,0,0
 2023-06-24 15:05:26.662,-70364.72206,36451.87306,9006.747187,32612.87154,26002.43253,-56339.67296,19814.665,-73398.68079,-0.014,0.096,-0.988,192,0,0,0,0,0,0,0,0,0,0
 2023-06-24 15:05:26.662,-70296.97392,37849.77351,10397.45038,33999.57377,27398.32132,-57292.84075,21207.67042,-74005.19538,-0.016,0.096,-0.986,192,255,128,3,0,225,48,0,0,0,0
 2023-06-24 15:05:26.662,-69979.69091,37720.51337,10236.78604,33974.33865,27245.25657,-56778.48241,21060.48418,-73670.27684,-0.016,0.096,-0.986,192,0,0,0,0,0,0,0,0,0,0
 2023-06-24 15:05:26.662,-69846.22864,35993.08115,8493.305265,32337.36394,25504.59212,-55357.29144,19323.19484,-72750.65902,-0.016,0.096,-0.986,192,0,0,0,0,0,0,0,0,0,0
 2023-06-24 15:05:26.662,-70095.20472,35360.7056,7889.137612,31634.28982,24894.83653,-55177.3152,18708.45481,-72651.95372,-0.016,0.096,-0.986,192,0,0,0,0,0,0,0,0,0,0
 2023-06-24 15:05:26.662,-70363.3139,36435.01984,8990.698634,32592.24088,25986.65219,-56323.35619,19795.35309,-73388.35429,-0.016,0.096,-0.986,192,0,0,0,0,0,0,0,0,0,0
 2023-06-24 15:05:26.662,-70310.34026,37776.54919,10327.84704,33913.89953,27313.74232,-57294.80771,21123.94078,-74008.83871,-0.016,0.096,-0.986,192,0,0,0,0,0,0,0,0,0,0
 2023-06-24 15:05:26.662,-70000.79095,37639.82357,10166.15452,33867.27379,27149.38994,-56800.7671,20964.6846,-73685.7666,-0.016,0.096,-0.986,192,0,0,0,0,0,0,0,0,0,0
 2023-06-24 15:05:26.662,-69855.16934,35955.84315,8464.180942,32294.11331,25455.41828,-55374.23407,19257.88304,-72758.59389,-0.016,0.096,-0.986,192,0,0,0,0,0,0,0,0,0,0
 2023-06-24 15:05:26.662,-70095.31648,35335.11285,7867.791697,31616.76605,24866.271,-55170.29675,18668.46754,-72642.05189,-0.016,0.096,-0.986,192,0,0,0,0,0,0,0,0,0,0
 2023-06-24 15:05:26.662,-70356.60837,36461.3502,9017.498376,32635.29034,26016.38001,-56301.29502,19816.69901,-73368.28242,-0.016,0.096,-0.986,192,0,0,0,0,0,0,0,0,0,0
 2023-06-24 15:05:26.662,-70302.51715,37856.7696,10408.84976,34017.65633,27404.11042,-57280.45789,21198.68501,-73993.52777,-0.022,0.098,-0.988,192,255,80,3,16,225,32,0,0,0,0
 2023-06-24 15:05:26.662,-70000.99212,37685.48819,10206.99116,33945.10257,27203.61527,-56808.94784,20997.02758,-73687.73355,-0.022,0.098,-0.988,192,0,0,0,0,0,0,0,0,0,0
 2023-06-24 15:05:26.662,-69858.5221,35967.60016,8472.74166,32316.50976,25475.91483,-55386.9075,19286.18035,-72764.58416,-0.022,0.098,-0.988,192,0,0,0,0,0,0,0,0,0,0
 2023-06-24 15:05:26.662,-70088.94623,35394.43438,7927.761427,31670.20907,24928.02887,-55158.60679,18738.31674,-72630.25017,-0.022,0.098,-0.988,192,0,0,0,0,0,0,0,0,0,0
 2023-06-24 15:05:26.662,-70355.26727,36465.59703,9022.639277,32635.02212,26019.12928,-56282.63131,19831.60762,-73351.58567,-0.022,0.098,-0.988,192,0,0,0,0,0,0,0,0,0,0
 2023-06-24 15:05:26.662,-70309.66971,37836.09424,10384.57577,33989.24726,27376.886,-57276.97102,21188.2691,-73985.97288,-0.022,0.098,-0.988,192,0,0,0,0,0,0,0,0,0,0
 2023-06-24 15:05:26.662,-70003.56257,37735.6455,10251.31467,33986.81092,27249.52576,-56818.84966,21065.22275,-73689.74521,-0.022,0.098,-0.988,192,0,0,0,0,0,0,0,0,0,0
 2023-06-24 15:05:26.662,-69863.77476,35981.4806,8478.664872,32336.11224,25493.86328,-55401.83847,19304.39702,-72771.08851,-0.022,0.098,-0.988,192,0,0,0,0,0,0,0,0,0,0
 2023-06-24 15:05:26.662,-70103.07254,35323.31113,7850.178522,31611.02165,24863.09706,-55162.56305,18678.59288,-72629.33375,-0.022,0.098,-0.988,192,0,0,0,0,0,0,0,0,0,0
 2023-06-24 15:05:26.662,-70375.92028,36376.99471,8934.506349,32551.29249,25932.94095,-56282.05017,19747.11803,-73347.60706,-0.022,0.098,-0.988,192,0,0,0,0,0,0,0,0,0,0
 2023-06-24 15:05:26.662,-70327.95344,37808.35573,10362.84987,33962.7828,27354.26603,-57282.84952,21166.65496,-73985.97288,-0.022,0.096,-0.988,192,255,80,3,0,225,32,0,0,0,0
 2023-06-24 15:05:26.662,-70012.9503,37790.83196,10318.74988,34039.22576,27312.51297,-56836.14991,21123.73961,-73693.16503,-0.022,0.096,-0.988,192,0,0,0,0,0,0,0,0,0,0
 2023-06-24 15:05:26.662,-69860.39965,36067.51246,8576.945493,32416.57852,25577.57057,-55412.36614,19382.58343,-72766.28289,-0.022,0.096,-0.988,192,0,0,0,0,0,0,0,0,0,0
 2023-06-24 15:05:26.662,-70099.11628,35351.49668,7888.288246,31631.54055,24890.43324,-55156.52807,18704.29739,-72613.75458,-0.022,0.096,-0.988,192,0,0,0,0,0,0,0,0,0,0
 2023-06-24 15:05:27.140,-70372.9922,36392.12685,8954.51116,32565.88817,25956.72321,-56266.40395,19767.77104,-73325.59059,-0.022,0.096,-0.988,192,0,0,0,0,0,0,0,0,0,0
 2023-06-24 15:05:27.140,-70322.87959,37867.43139,10423.87014,34021.7914,27423.53409,-57272.38891,21237.19707,-73966.03512,-0.022,0.096,-0.988,192,0,0,0,0,0,0,0,0,0,0
 2023-06-24 15:05:27.140,-70018.11356,37802.76779,10330.14927,34060.10229,27336.16112,-56851.32675,21158.58598,-73691.77922,-0.022,0.096,-0.988,192,0,0,0,0,0,0,0,0,0,0
 2023-06-24 15:05:27.140,-69864.57942,36072.29573,8581.125269,32435.93513,25595.16139,-55430.69457,19411.7748,-72769.88152,-0.022,0.096,-0.988,192,0,0,0,0,0,0,0,0,0,0
 2023-06-24 15:05:27.140,-70098.84806,35341.14782,7876.777098,31630.78059,24882.76659,-55155.05286,18688.74057,-72606.64673,-0.022,0.096,-0.988,192,0,0,0,0,0,0,0,0,0,0
 2023-06-24 15:05:27.140,-70372.05343,36369.30571,8931.555919,32550.73369,25932.29275,-56255.49629,19751.99071,-73312.60423,-0.022,0.096,-0.988,192,0,0,0,0,0,0,0,0,0,0
 2023-06-24 15:05:27.140,-70329.04867,37813.92131,10369.06366,33975.18801,27367.36415,-57277.66392,21198.39444,-73963.8223,-0.024,0.096,-0.992,192,255,64,3,0,225,0,0,0,0,0
 2023-06-24 15:05:27.140,-70031.07757,37743.04393,10262.15527,34008.98385,27270.64815,-56878.81939,21091.24018,-73702.66452,-0.024,0.096,-0.992,192,0,0,0,0,0,0,0,0,0,0
 2023-06-24 15:05:27.140,-69869.29564,36070.52995,8572.318682,32435.24223,25589.61816,-55451.92873,19405.62807,-72773.25663,-0.024,0.096,-0.992,192,0,0,0,0,0,0,0,0,0,0
 2023-06-24 15:05:27.140,-70098.75865,35345.9758,7875.726566,31639.2072,24883.5042,-55148.97318,18693.23327,-72588.38535,-0.024,0.096,-0.992,192,0,0,0,0,0,0,0,0,0,0
 2023-06-24 15:05:27.140,-70375.83087,36369.32807,8930.661849,32541.99416,25921.56391,-56241.10177,19729.16957,-73288.93373,-0.024,0.096,-0.992,192,0,0,0,0,0,0,0,0,0,0
 2023-06-24 15:05:27.140,-70334.56955,37854.37797,10415.22001,34008.73798,27408.64782,-57273.97588,21198.30503,-73946.20913,-0.024,0.096,-0.992,192,0,0,0,0,0,0,0,0,0,0
 2023-06-24 15:05:27.140,-70028.39536,37847.27011,10376.23857,34112.51713,27383.368,-56883.98264,21166.05147,-73688.62762,-0.024,0.096,-0.992,192,0,0,0,0,0,0,0,0,0,0
 2023-06-24 15:05:27.140,-69865.83112,36139.64154,8646.168845,32505.58317,25661.859,-55461.74114,19456.16537,-72762.66191,-0.024,0.096,-0.992,192,0,0,0,0,0,0,0,0,0,0
 2023-06-24 15:05:27.140,-70092.18724,35378.92227,7911.958744,31677.51809,24925.48077,-55136.90324,18730.20306,-72565.40776,-0.024,0.096,-0.992,192,0,0,0,0,0,0,0,0,0,0
 2023-06-24 15:05:27.140,-70373.17102,36359.13567,8918.12252,32549.45964,25931.6222,-56218.28064,19726.9344,-73262.89395,-0.024,0.096,-0.992,192,0,0,0,0,0,0,0,0,0,0
 2023-06-24 15:05:27.140,-70342.07974,37821.87853,10381.80415,33985.91685,27385.02203,-57264.31993,21179.08253,-73930.96524,-0.022,0.098,-0.99,192,255,80,3,16,225,16,0,0,0,0
 2023-06-24 15:05:27.140,-70039.61593,37854.825,10386.25215,34107.13036,27386.98898,-56889.92821,21187.12916,-73682.39149,-0.022,0.098,-0.99,192,0,0,0,0,0,0,0,0,0,0
 2023-06-24 15:05:27.140,-69866.43462,36199.58892,8707.323218,32548.07383,25715.7714,-55462.90344,19530.77549,-72750.14493,-0.022,0.098,-0.99,192,0,0,0,0,0,0,0,0,0,0
 2023-06-24 15:05:27.140,-70097.84223,35368.484,7898.45829,31662.8777,24909.164,-55125.57091,18719.07189,-72544.39712,-0.022,0.098,-0.99,192,0,0,0,0,0,0,0,0,0,0
 2023-06-24 15:05:27.140,-70379.69773,36359.89563,8918.726017,32539.31195,25921.63097,-56196.39828,19718.68661,-73232.94261,-0.022,0.098,-0.99,192,0,0,0,0,0,0,0,0,0,0
 2023-06-24 15:05:27.140,-70354.21674,37823.53256,10376.86442,33970.5612,27377.17657,-57253.85931,21170.56652,-73907.04887,-0.022,0.098,-0.99,192,0,0,0,0,0,0,0,0,0,0
 2023-06-24 15:05:27.140,-70056.87148,37833.59085,10355.69732,34071.25581,27362.33501,-56902.13226,21174.61219,-73671.95322,-0.022,0.098,-0.99,192,0,0,0,0,0,0,0,0,0,0
 2023-06-24 15:05:27.140,-69877.29757,36202.74051,8702.070558,32547.64915,25719.43709,-55478.57201,19530.2167,-72741.74067,-0.022,0.098,-0.99,192,0,0,0,0,0,0,0,0,0,0
 2023-06-24 15:05:27.140,-70092.88014,35424.98921,7947.78859,31713.28088,24970.25132,-55115.06559,18776.27001,-72515.83159,-0.022,0.098,-0.99,192,0,0,0,0,0,0,0,0,0,0
 2023-06-24 15:05:27.140,-70383.29636,36343.89178,8901.358712,32513.65215,25910.56686,-56182.27198,19718.57485,-73202.0972,-0.022,0.098,-0.99,192,0,0,0,0,0,0,0,0,0,0
 2023-06-24 15:05:27.140,-70374.66858,37749.14595,10307.64107,33890.16198,27305.80745,-57259.53665,21110.7309,-73892.25202,-0.022,0.096,-0.988,192,255,80,3,0,225,32,0,0,0,0
 2023-06-24 15:05:27.140,-70078.12799,37800.3091,10324.96367,34048.7029,27335.35645,-56924.03697,21132.65796,-73669.56159,-0.022,0.096,-0.988,192,0,0,0,0,0,0,0,0,0,0
 2023-06-24 15:05:27.140,-69889.68043,36201.51117,8702.294076,32554.39938,25723.32629,-55496.4087,19517.40915,-72738.18675,-0.022,0.096,-0.988,192,0,0,0,0,0,0,0,0,0,0
 2023-06-24 15:05:27.140,-70093.26012,35458.69565,7987.820564,31742.18169,24999.95679,-55104.04618,18795.20193,-72493.77042,-0.022,0.096,-0.988,192,0,0,0,0,0,0,0,0,0,0
 2023-06-24 15:05:27.140,-70378.17781,36400.17347,8956.232245,32571.49846,25965.19452,-56155.53929,19756.10343,-73166.96026,-0.022,0.096,-0.988,192,0,0,0,0,0,0,0,0,0,0
 2023-06-24 15:05:27.140,-70367.09134,37840.0952,10395.8187,33980.55243,27397.60606,-57239.5542,21196.80747,-73857.49505,-0.022,0.096,-0.988,192,0,0,0,0,0,0,0,0,0,0
 2023-06-24 15:05:27.140,-70070.88602,37897.58389,10422.14905,34127.40339,27424.42816,-56921.1536,21232.52556,-73644.57233,-0.022,0.096,-0.988,192,0,0,0,0,0,0,0,0,0,0
 2023-06-24 15:05:27.140,-69889.76984,36226.36631,8727.640954,32564.12239,25736.8938,-55505.01412,19541.63844,-72720.59592,-0.022,0.096,-0.988,192,0,0,0,0,0,0,0,0,0,0
 2023-06-24 15:05:27.140,-70105.8218,35386.54421,7915.557374,31660.35195,24918.30586,-55105.63315,18730.65009,-72474.30205,-0.022,0.096,-0.988,192,0,0,0,0,0,0,0,0,0,0
 2023-06-24 15:05:27.140,-70387.34202,36364.50009,8918.055465,32528.47135,25922.70385,-56143.62581,19738.19968,-73140.20522,-0.022,0.096,-0.988,192,0,0,0,0,0,0,0,0,0,0
 2023-06-24 15:05:27.140,-70379.4295,37809.2945,10355.45145,33955.71964,27364.86076,-57238.72718,21173.5393,-73839.56895,-0.024,0.088,-0.988,192,255,64,2,192,225,32,0,0,0,0
 2023-06-24 15:05:27.140,-70084.72175,37888.75495,10406.1452,34127.11282,27414.48163,-56937.06804,21220.14269,-73637.66565,-0.024,0.088,-0.988,192,0,0,0,0,0,0,0,0,0,0
 2023-06-24 15:05:27.140,-69894.95544,36249.45566,8747.042268,32591.88325,25765.59344,-55519.96744,19571.32156,-72711.45406,-0.024,0.088,-0.988,192,0,0,0,0,0,0,0,0,0,0
 2023-06-24 15:05:27.140,-70104.30188,35394.72495,7917.613735,31688.24693,24937.41661,-55098.74881,18740.14959,-72450.54215,-0.024,0.088,-0.988,192,0,0,0,0,0,0,0,0,0,0
 2023-06-24 15:05:27.141,-70397.17679,36305.20091,8853.92831,32485.15367,25867.85267,-56131.51117,19667.47876,-73115.32773,-0.024,0.088,-0.988,192,0,0,0,0,0,0,0,0,0,0
 2023-06-24 15:05:27.141,-70391.81237,37792.32953,10342.46508,33933.9714,27345.5265,-57230.41233,21149.35471,-73816.30079,-0.024,0.088,-0.988,192,0,0,0,0,0,0,0,0,0,0
 2023-06-24 15:05:27.141,-70097.4399,37906.36813,10432.65437,34130.24207,27432.67595,-56942.9689,21237.42059,-73624.05343,-0.024,0.088,-0.988,192,0,0,0,0,0,0,0,0,0,0
 2023-06-24 15:05:27.141,-69894.79898,36341.38839,8843.177121,32684.50888,25860.05191,-55521.12973,19653.86655,-72695.3161,-0.024,0.088,-0.988,192,0,0,0,0,0,0,0,0,0,0
 2023-06-24 15:05:27.141,-70089.52738,35513.70329,8039.095466,31808.90164,25060.12768,-55077.13468,18853.94232,-72419.27206,-0.024,0.088,-0.988,192,0,0,0,0,0,0,0,0,0,0
 2023-06-24 15:05:27.141,-70383.45282,36368.34459,8926.57148,32540.87657,25930.95165,-56103.0574,19724.87804,-73079.58729,-0.024,0.088,-0.988,192,0,0,0,0,0,0,0,0,0,0
 2023-06-24 15:05:27.141,-70388.63842,37803.5501,10363.43102,33933.05498,27357.35057,-57216.80012,21157.96014,-73791.87033,-0.016,0.096,-0.988,192,255,128,3,0,225,32,0,0,0,0
 2023-06-24 15:05:27.141,-70090.62261,37975.36796,10504.73875,34191.44114,27502.88278,-56941.44898,21301.57009,-73606.10498,-0.016,0.096,-0.988,192,0,0,0,0,0,0,0,0,0,0
 2023-06-24 15:05:27.141,-69898.57643,36318.29903,8819.350161,32660.70427,25830.61467,-55536.73125,19626.91034,-72687.47064,-0.016,0.096,-0.988,192,0,0,0,0,0,0,0,0,0,0
 2023-06-24 15:05:27.141,-70098.11045,35450.26904,7977.51641,31734.17976,24987.64098,-55078.31932,18795.00077,-72402.19532,-0.016,0.096,-0.988,192,0,0,0,0,0,0,0,0,0,0
 2023-06-24 15:05:27.141,-70387.90082,36361.79553,8916.043808,32528.42665,25919.93224,-56085.91361,19721.45822,-73051.11117,-0.016,0.096,-0.988,192,0,0,0,0,0,0,0,0,0,0
 2023-06-24 15:05:27.141,-70397.28855,37798.43155,10351.13756,33937.83825,27355.09304,-57211.86038,21144.99612,-73771.95493,-0.016,0.096,-0.988,192,0,0,0,0,0,0,0,0,0,0
 2023-06-24 15:05:27.141,-70101.23969,37967.36604,10492.17707,34193.76572,27499.10533,-56956.75992,21296.13862,-73598.72891,-0.016,0.096,-0.988,192,0,0,0,0,0,0,0,0,0,0
 2023-06-24 15:05:27.141,-69900.00694,36353.77125,8854.732973,32686.05115,25861.05774,-55547.37068,19668.28342,-72678.79816,-0.016,0.096,-0.988,192,0,0,0,0,0,0,0,0,0,0
 2023-06-24 15:05:27.141,-70099.07157,35425.57036,7950.09082,31706.75417,24953.3534,-55074.00543,18754.43235,-72383.59867,-0.016,0.096,-0.988,192,0,0,0,0,0,0,0,0,0,0
 2023-06-24 15:05:27.141,-70389.04075,36323.95402,8879.833982,32488.81936,25881.50959,-56069.30626,19674.29604,-73021.62922,-0.016,0.096,-0.988,192,0,0,0,0,0,0,0,0,0,0
 2023-06-24 15:05:27.141,-70400.75307,37792.21777,10345.41551,33926.43886,27346.8229,-57199.36576,21133.68614,-73743.32234,-0.014,0.096,-0.988,192,255,144,3,0,225,32,0,0,0,0
 2023-06-24 15:05:27.141,-70113.71197,37930.70917,10454.96141,34156.50536,27464.39308,-56965.23124,21261.60517,-73585.7649,-0.014,0.096,-0.988,192,0,0,0,0,0,0,0,0,0,0
 2023-06-24 15:05:27.141,-69916.12255,36292.21455,8796.931362,32631.04351,25813.76145,-55566.8614,19609.38658,-72671.91382,-0.014,0.096,-0.988,192,0,0,0,0,0,0,0,0,0,0
 2023-06-24 15:05:27.141,-70114.20371,35360.92911,7891.685711,31644.50456,24901.4303,-55075.14537,18692.80859,-72365.00202,-0.014,0.096,-0.988,192,0,0,0,0,0,0,0,0,0,0
 2023-06-24 15:05:27.141,-70408.71029,36252.47315,8810.901202,32412.91284,25805.84893,-56059.78442,19595.79672,-72995.92471,-0.014,0.096,-0.988,192,0,0,0,0,0,0,0,0,0,0
 2023-06-24 15:05:27.141,-70424.44592,37735.80196,10290.63139,33861.5741,27282.40517,-57200.5504,21072.86704,-73722.15524,-0.014,0.096,-0.988,192,0,0,0,0,0,0,0,0,0,0
 2023-06-24 15:05:27.141,-70134.05205,37927.1329,10454.60379,34144.90481,27448.43393,-56979.53635,21238.60523,-73569.31401,-0.014,0.096,-0.988,192,0,0,0,0,0,0,0,0,0,0
 2023-06-24 15:05:27.141,-69922.71631,36374.06664,8877.710566,32706.61476,25882.49306,-55574.5057,19689.8305,-72647.79629,-0.014,0.096,-0.988,192,0,0,0,0,0,0,0,0,0,0
 2023-06-24 15:05:27.141,-70118.5623,35379.81634,7905.879069,31671.37136,24913.92492,-55067.74695,18728.88431,-72329.84273,-0.014,0.096,-0.988,192,0,0,0,0,0,0,0,0,0,0
 2023-06-24 15:05:27.141,-70422.00958,36171.96216,8728.535024,32350.39501,25727.99781,-56048.04975,19534.61999,-72959.08904,-0.014,0.096,-0.988,192,0,0,0,0,0,0,0,0,0,0
 2023-06-24 15:05:27.141,-70444.31662,37662.53294,10222.70444,33797.04461,27216.84751,-57197.9129,21008.65048,-73693.63441,-0.022,0.094,-0.99,192,255,80,2,240,225,16,0,0,0,0
 2023-06-24 15:05:27.141,-70156.87319,37878.29433,10412.13547,34103.06234,27406.68087,-56995.76372,21190.66074,-73553.8019,-0.022,0.094,-0.99,192,0,0,0,0,0,0,0,0,0,0
 2023-06-24 15:05:27.141,-69942.94464,36332.87237,8841.813665,32664.07939,25838.28131,-55594.73402,19649.28444,-72635.61459,-0.022,0.094,-0.99,192,0,0,0,0,0,0,0,0,0,0
 2023-06-24 15:05:27.141,-70124.15023,35410.66175,7938.490264,31695.69006,24945.73145,-55058.96271,18767.97751,-72299.53376,-0.022,0.094,-0.99,192,0,0,0,0,0,0,0,0,0,0
 2023-06-24 15:05:27.141,-70418.90269,36237.67629,8793.310379,32411.1247,25793.64488,-56017.36081,19604.96093,-72917.06776,-0.022,0.094,-0.99,192,0,0,0,0,0,0,0,0,0,0
 2023-06-24 15:05:27.141,-70449.61398,37693.49011,10247.98426,33841.61399,27243.93782,-57178.53393,21028.47648,-73660.1962,-0.022,0.094,-0.99,192,0,0,0,0,0,0,0,0,0,0
 2023-06-24 15:05:27.141,-70162.99756,37930.21744,10464.03622,34155.72305,27453.53013,-56992.03098,21248.06002,-73531.47251,-0.022,0.094,-0.99,192,0,0,0,0,0,0,0,0,0,0
 2023-06-24 15:05:27.141,-69946.9009,36370.44565,8881.912694,32708.13468,25876.88278,-55597.0139,19682.40973,-72616.81677,-0.022,0.094,-0.99,192,0,0,0,0,0,0,0,0,0,0
 2023-06-24 15:05:27.141,-70132.62154,35372.70848,7907.398988,31667.68332,24902.32437,-55051.0949,18716.07676,-72274.87979,-0.022,0.094,-0.99,192,0,0,0,0,0,0,0,0,0,0
 2023-06-24 15:05:27.141,-70434.37009,36158.41701,8724.399951,32338.07919,25708.84236,-56006.14023,19516.26921,-72891.25149,-0.022,0.094,-0.99,192,0,0,0,0,0,0,0,0,0,0
 2023-06-24 15:05:27.141,-70465.05904,37651.29002,10218.9717,33790.45085,27196.79799,-57172.2978,20995.06062,-73638.02327,-0.018,0.094,-0.992,192,255,112,2,240,225,0,0,0,0,0
 2023-06-24 15:05:27.141,-70185.70694,37875.61212,10413.96831,34097.4297,27391.48168,-57006.44785,21191.06307,-73524.52112,-0.018,0.094,-0.992,192,0,0,0,0,0,0,0,0,0,0
 2023-06-24 15:05:27.141,-69964.44702,36355.84996,8866.400584,32690.70032,25856.43093,-55612.23544,19666.65175,-72611.45235,-0.018,0.094,-0.992,192,0,0,0,0,0,0,0,0,0,0
 2023-06-24 15:05:27.141,-70140.62347,35380.91157,7910.438825,31670.87962,24904.78306,-55043.65176,18730.82891,-72255.63493,-0.018,0.094,-0.992,192,0,0,0,0,0,0,0,0,0,0
 2023-06-24 15:05:27.141,-70447.73644,36137.83105,8694.113337,32305.5127,25682.53436,-55988.54941,19503.17109,-72865.30112,-0.018,0.094,-0.992,192,0,0,0,0,0,0,0,0,0,0
 2023-06-24 15:05:27.141,-70480.66056,37668.03147,10227.73358,33799.25743,27213.89707,-57158.35031,21010.72919,-73613.77163,-0.018,0.094,-0.992,192,0,0,0,0,0,0,0,0,0,0
 2023-06-24 15:05:27.141,-70210.11504,37882.49646,10415.51058,34106.48216,27407.61964,-57014.87446,21205.41289,-73514.37342,-0.018,0.094,-0.992,192,0,0,0,0,0,0,0,0,0,0
 2023-06-24 15:05:27.141,-69992.4761,36341.20957,8847.602766,32677.82571,25850.70888,-55631.41324,19653.53127,-72610.46888,-0.018,0.094,-0.992,192,0,0,0,0,0,0,0,0,0,0
 2023-06-24 15:05:27.141,-70161.70116,35386.61127,7912.070502,31678.21099,24917.90353,-55040.09784,18718.64721,-72239.7652,-0.018,0.094,-0.992,192,0,0,0,0,0,0,0,0,0,0
 2023-06-24 15:05:27.141,-70465.05904,36154.79602,8711.234774,32338.48153,25710.85402,-55967.27055,19509.85426,-72838.70254,-0.018,0.094,-0.992,192,0,0,0,0,0,0,0,0,0,0
 2023-06-24 15:05:27.141,-70504.37576,37658.21906,10217.18356,33803.07958,27213.49474,-57145.09572,21013.50081,-73593.31978,-0.024,0.094,-0.992,192,255,64,2,240,225,0,0,0,0,0
 2023-06-24 15:05:27.141,-70225.44834,37953.95499,10485.94093,34179.59472,27486.78952,-57011.67816,21282.34759,-73499.04013,-0.024,0.094,-0.992,192,0,0,0,0,0,0,0,0,0,0
 2023-06-24 15:05:27.141,-69999.78513,36451.20251,8956.589872,32788.01981,25962.80288,-55629.73686,19753.86825,-72595.26969,-0.024,0.094,-0.992,192,0,0,0,0,0,0,0,0,0,0
 2023-06-24 15:05:27.141,-70172.49705,35422.99991,7951.7672,31720.63461,24959.32132,-55027.55851,18743.12237,-72217.56991,-0.024,0.094,-0.992,192,0,0,0,0,0,0,0,0,0,0
 2023-06-24 15:05:27.141,-70487.96958,36114.56288,8673.013291,32296.77317,25672.789,-55952.02666,19454.26547,-72817.53544,-0.024,0.094,-0.992,192,0,0,0,0,0,0,0,0,0,0
 2023-06-24 15:05:27.141,-70543.93834,37563.73823,10128.06715,33692.19258,27115.30353,-57144.33576,20904.82663,-73582.5686,-0.024,0.094,-0.992,192,0,0,0,0,0,0,0,0,0,0
 2023-06-24 15:05:27.141,-70258.81949,37950.82574,10486.96911,34160.1934,27475.85952,-57017.82489,21266.29904,-73490.79233,-0.024,0.094,-0.992,192,0,0,0,0,0,0,0,0,0,0
 2023-06-24 15:05:27.141,-70026.83074,36462.87012,8969.822105,32805.78945,25972.45884,-55636.95647,19768.44159,-72587.7148,-0.024,0.094,-0.992,192,0,0,0,0,0,0,0,0,0,0
 2023-06-24 15:05:27.141,-70195.27348,35401.16225,7929.638973,31711.5598,24938.26597,-55015.42151,18733.08643,-72197.94508,-0.024,0.094,-0.992,192,0,0,0,0,0,0,0,0,0,0
 2023-06-24 15:05:27.141,-70498.20667,36141.34027,8699.388349,32336.06754,25701.71216,-55917.33675,19498.1643,-72781.90676,-0.024,0.094,-0.992,192,0,0,0,0,0,0,0,0,0,0
 2023-06-24 15:05:27.141,-70543.42425,37661.41536,10228.06886,33807.43817,27224.00006,-57106.15898,21014.64075,-73544.45887,-0.024,0.094,-0.992,192,0,0,0,0,0,0,0,0,0,0
 2023-06-24 15:05:27.141,-70259.84767,38033.79542,10578.14188,34253.51194,27564.19361,-57000.01055,21357.24829,-73468.82057,-0.026,0.096,-0.994,192,255,48,3,0,224,240,0,0,0,0
 2023-06-24 15:05:27.141,-70027.61305,36532.5405,9050.087219,32870.38599,26043.09035,-55631.16737,19853.1547,-72574.39316,-0.026,0.096,-0.994,192,0,0,0,0,0,0,0,0,0,0
 2023-06-24 15:05:27.141,-70196.7487,35437.99793,7974.007186,31743.41103,24971.79359,-54996.46723,18778.68399,-72175.63804,-0.026,0.096,-0.994,192,0,0,0,0,0,0,0,0,0,0
 2023-06-24 15:05:27.141,-70505.73921,36134.99238,8697.466099,32334.9276,25694.20197,-55893.53214,19490.87763,-72756.38107,-0.026,0.096,-0.994,192,0,0,0,0,0,0,0,0,0,0
 2023-06-24 15:05:27.141,-70556.2318,37665.1481,10230.5946,33807.81815,27228.11278,-57092.07739,21026.17425,-73525.594,-0.026,0.096,-0.994,192,0,0,0,0,0,0,0,0,0,0
 2023-06-24 15:05:27.141,-70274.9351,38046.98295,10583.28278,34266.31949,27583.34906,-57001.99986,21377.32016,-73459.94693,-0.026,0.096,-0.994,192,0,0,0,0,0,0,0,0,0,0
 2023-06-24 15:05:27.141,-70045.80737,36514.21207,9026.662591,32854.73977,26027.89116,-55645.24897,19829.97594,-72572.985,-0.026,0.096,-0.994,192,0,0,0,0,0,0,0,0,0,0
 2023-06-24 15:05:27.141,-70209.33273,35417.65784,7951.543683,31720.27698,24949.95593,-54989.42643,18748.44208,-72161.10941,-0.026,0.096,-0.994,192,0,0,0,0,0,0,0,0,0,0
 2023-06-24 15:05:27.141,-70516.46805,36118.80971,8683.742128,32305.64681,25670.01738,-55868.56525,19467.11772,-72732.10707,-0.026,0.096,-0.994,192,0,0,0,0,0,0,0,0,0,0
 2023-06-24 15:05:27.141,-70583.27741,37591.56616,10162.31002,33724.44614,27143.46673,-57082.68965,20948.97133,-73511.35594,-0.026,0.096,-0.994,192,0,0,0,0,0,0,0,0,0,0
 2023-06-24 15:05:27.141,-70309.4909,37976.35144,10517.05456,34189.25067,27507.21902,-57015.43325,21309.43791,-73458.42701,-0.018,0.096,-0.99,192,255,112,3,0,225,16,0,0,0,0
 2023-06-24 15:05:27.141,-70069.94725,36515.39672,9025.097969,32854.51625,26028.91934,-55656.13427,19833.44046,-72570.54866,-0.018,0.096,-0.99,192,0,0,0,0,0,0,0,0,0,0
 2023-06-24 15:05:27.141,-70217.06643,35493.09498,8024.253908,31794.9318,25022.86732,-54970.42745,18818.71597,-72136.20956,-0.018,0.096,-0.99,192,0,0,0,0,0,0,0,0,0,0
 2023-06-24 15:05:27.141,-70521.00545,36195.58796,8755.155951,32385.46489,25745.43217,-55838.03276,19544.74533,-72695.9643,-0.018,0.096,-0.99,192,0,0,0,0,0,0,0,0,0,0
 2023-06-24 15:05:27.141,-70587.61365,37672.27831,10236.9425,33809.82981,27226.32464,-57054.70527,21033.46092,-73475.77196,-0.018,0.096,-0.99,192,0,0,0,0,0,0,0,0,0,0
 2023-06-24 15:05:27.141,-70317.71634,38052.32502,10592.5811,34263.07848,27578.29756,-57004.88323,21383.66805,-73433.50481,-0.018,0.096,-0.99,192,0,0,0,0,0,0,0,0,0,0
 2023-06-24 15:05:27.141,-70077.72566,36592.55494,9104.536069,32926.82414,26099.28263,-55655.9778,19897.9923,-72550.92383,-0.018,0.096,-0.99,192,0,0,0,0,0,0,0,0,0,0
 2023-06-24 15:05:27.141,-70235.14899,35449.44202,7979.528067,31752.70936,24975.7722,-54963.29724,18773.81131,-72112.65083,-0.018,0.096,-0.99,192,0,0,0,0,0,0,0,0,0,0
 2023-06-24 15:05:27.141,-70546.70996,36102.67175,8666.643043,32291.85579,25656.18165,-55823.03474,19455.51717,-72670.90799,-0.018,0.096,-0.99,192,0,0,0,0,0,0,0,0,0,0
 2023-06-24 15:05:27.141,-70617.36382,37597.847,10165.46162,33730.9505,27149.34524,-57046.47983,20952.86053,-73455.7895,-0.018,0.096,-0.99,192,0,0,0,0,0,0,0,0,0,0
 2023-06-24 15:05:27.141,-70349.07584,38014.26,10551.05156,34221.28072,27538.33265,-57011.72286,21349.22401,-73425.05585,-0.018,0.094,-0.99,192,255,112,2,240,225,16,0,0,0,0
 2023-06-24 15:05:27.141,-70097.35049,36629.70354,9133.459226,32959.56945,26135.73833,-55663.48799,19948.0155,-72544.06184,-0.018,0.094,-0.99,192,0,0,0,0,0,0,0,0,0,0
 2023-06-24 15:05:27.141,-70243.28503,35511.62458,8033.284012,31811.53915,25035.67487,-54943.35949,18842.27471,-72088.71211,-0.018,0.094,-0.99,192,0,0,0,0,0,0,0,0,0,0
 2023-06-24 15:05:27.620,-70556.1871,36136.31113,8689.15125,32314.43105,25680.72387,-55791.27291,19488.79892,-72639.14617,-0.018,0.094,-0.99,192,0,0,0,0,0,0,0,0,0,0
 2023-06-24 15:05:27.620,-70630.46195,37635.82261,10196.39643,33761.28182,27179.22952,-57022.80933,20981.2696,-73428.94506,-0.018,0.094,-0.99,192,0,0,0,0,0,0,0,0,0,0
 2023-06-24 15:05:27.620,-70371.0476,38031.31438,10566.13899,34232.27778,27550.49199,-57010.62763,21350.76628,-73412.09184,-0.018,0.094,-0.99,192,0,0,0,0,0,0,0,0,0,0
 2023-06-24 15:05:27.620,-70123.77025,36619.39938,9123.624459,32941.15161,26118.88511,-55677.99427,19922.40041,-72540.35146,-0.018,0.094,-0.99,192,0,0,0,0,0,0,0,0,0,0
 2023-06-24 15:05:27.620,-70274.13044,35463.76949,7988.267599,31757.22441,24981.18132,-54969.86866,18792.13974,-72097.36223,-0.018,0.094,-0.99,192,0,0,0,0,0,0,0,0,0,0
 2023-06-24 15:05:27.620,-70551.53794,36516.98369,9079.613874,32676.30579,26063.94453,-56007.48134,19868.62211,-72804.28085,-0.018,0.094,-0.99,192,0,0,0,0,0,0,0,0,0,0
 2023-06-24 15:05:27.620,-70560.70215,38031.87317,10595.71035,34161.06512,27575.77182,-57218.14122,21369.92173,-73585.04964,-0.018,0.094,-0.99,192,0,0,0,0,0,0,0,0,0,0
 2023-06-24 15:05:27.620,-70302.5395,38260.73268,10797.23368,34475.3977,27779.32915,-57117.84895,21574.73076,-73508.47256,-0.022,0.094,-0.992,192,255,80,2,240,225,0,0,0,0,0
 2023-06-24 15:05:27.620,-70070.59545,36731.96277,9238.624184,33058.27475,26228.22985,-55739.46157,20045.62557,-72605.12681,-0.022,0.094,-0.992,192,0,0,0,0,0,0,0,0,0,0
 2023-06-24 15:05:27.620,-70227.66116,35498.52645,8025.237384,31791.91432,25012.76434,-54962.47023,18832.08231,-72109.32042,-0.022,0.094,-0.992,192,0,0,0,0,0,0,0,0,0,0
 2023-06-24 15:05:27.620,-70549.41452,36136.17702,8694.560372,32315.68275,25672.11845,-55798.31371,19472.81742,-72652.44545,-0.022,0.094,-0.992,192,0,0,0,0,0,0,0,0,0,0
 2023-06-24 15:05:27.620,-70625.27634,37718.68053,10282.71887,33842.75393,27258.82408,-57081.48266,21058.1596,-73478.23065,-0.022,0.094,-0.992,192,0,0,0,0,0,0,0,0,0,0
 2023-06-24 15:05:27.620,-70359.73762,38130.13144,10668.26411,34333.24061,27647.56562,-57087.13765,21460.22278,-73469.9158,-0.022,0.094,-0.992,192,0,0,0,0,0,0,0,0,0,0
 2023-06-24 15:05:27.620,-70098.80335,36736.96956,9246.760219,33059.36999,26235.76239,-55714.98641,20056.08619,-72564.6031,-0.022,0.094,-0.992,192,0,0,0,0,0,0,0,0,0,0
 2023-06-24 15:05:27.620,-70240.64752,35531.78585,8058.005042,31833.77914,25052.34928,-54919.15255,18866.39224,-72053.91044,-0.022,0.094,-0.992,192,0,0,0,0,0,0,0,0,0,0
 2023-06-24 15:05:27.620,-70568.4135,36104.63871,8660.541017,32292.99573,25654.63938,-55753.31965,19463.5638,-72598.26483,-0.022,0.094,-0.992,192,0,0,0,0,0,0,0,0,0,0
 2023-06-24 15:05:27.620,-70653.12662,37651.93822,10216.62476,33785.57817,27207.39272,-57051.48662,21005.6777,-73436.85757,-0.022,0.094,-0.992,192,0,0,0,0,0,0,0,0,0,0
 2023-06-24 15:05:27.620,-70385.64329,38127.7398,10667.03477,34336.21339,27657.60155,-57071.40202,21453.4949,-73438.44455,-0.018,0.096,-0.99,192,255,112,3,0,225,16,0,0,0,0
 2023-06-24 15:05:27.620,-70136.17547,36666.76273,9178.386233,32999.73553,26176.64202,-55720.93197,19977.45275,-72552.13082,-0.018,0.096,-0.99,192,0,0,0,0,0,0,0,0,0,0
 2023-06-24 15:05:27.620,-70283.60758,35384.28669,7914.126863,31691.95732,24911.60034,-54915.75508,18712.56753,-72040.20882,-0.018,0.096,-0.99,192,0,0,0,0,0,0,0,0,0,0
 2023-06-24 15:05:27.620,-70607.23848,35974.59626,8534.87951,32165.56843,25526.67564,-55735.12533,19317.45044,-72577.27654,-0.018,0.096,-0.99,192,0,0,0,0,0,0,0,0,0,0
 2023-06-24 15:05:27.620,-70686.92245,37585.03945,10150.68712,33707.70469,27138.37053,-57033.04643,20926.55253,-73416.45043,-0.018,0.096,-0.99,192,0,0,0,0,0,0,0,0,0,0
 2023-06-24 15:05:27.620,-70416.55575,38089.27245,10629.41678,34288.00068,27619.46948,-57067.78104,21409.14904,-73426.70988,-0.018,0.096,-0.99,192,0,0,0,0,0,0,0,0,0,0
 2023-06-24 15:05:27.620,-70159.19777,36663.74524,9173.446497,33001.72484,26178.05018,-55723.2342,19958.38671,-72544.1289,-0.018,0.096,-0.99,192,0,0,0,0,0,0,0,0,0,0
 2023-06-24 15:05:27.620,-70303.27711,35349.46267,7872.977301,31672.15367,24878.4527,-54900.10886,18662.63374,-72022.618,-0.018,0.096,-0.99,192,0,0,0,0,0,0,0,0,0,0
 2023-06-24 15:05:27.620,-70623.17528,35944.64492,8500.614286,32145.67538,25498.71361,-55700.34602,19297.84796,-72547.25814,-0.018,0.096,-0.99,192,0,0,0,0,0,0,0,0,0,0
 2023-06-24 15:05:27.620,-70701.22757,37582.69251,10147.53552,33715.79602,27143.22086,-57000.94932,20940.18709,-73388.64486,-0.018,0.096,-0.99,192,0,0,0,0,0,0,0,0,0,0
 2023-06-24 15:05:27.620,-70435.7112,38058.78467,10598.05728,34262.45263,27594.0779,-57058.41566,21391.08883,-73415.98104,-0.016,0.094,-0.986,192,255,128,2,240,225,48,0,0,0,0
 2023-06-24 15:05:27.620,-70178.57673,36612.5821,9121.657505,32944.57143,26123.10959,-55727.61515,19915.58312,-72543.90538,-0.016,0.094,-0.986,192,0,0,0,0,0,0,0,0,0,0
 2023-06-24 15:05:27.620,-70312.01664,35333.54823,7860.616787,31639.07309,24859.74429,-54884.59675,18663.32664,-72006.30122,-0.016,0.094,-0.986,192,0,0,0,0,0,0,0,0,0,0
 2023-06-24 15:05:27.620,-70624.96342,35949.38349,8509.867908,32141.27208,25508.97306,-55665.63376,19311.25901,-72514.84811,-0.016,0.094,-0.986,192,0,0,0,0,0,0,0,0,0,0
 2023-06-24 15:05:27.620,-70711.93406,37538.99485,10108.66584,33677.88746,27103.61357,-56976.18359,20896.44473,-73360.9734,-0.016,0.094,-0.986,192,0,0,0,0,0,0,0,0,0,0
 2023-06-24 15:05:27.620,-70448.92108,38057.55532,10600.58303,34259.43515,27586.81358,-57046.97157,21379.7565,-73397.67497,-0.016,0.094,-0.986,192,0,0,0,0,0,0,0,0,0,0
 2023-06-24 15:05:27.620,-70191.33958,36638.06309,9148.189026,32966.23027,26143.76261,-55721.64723,19950.98829,-72531.76839,-0.016,0.094,-0.986,192,0,0,0,0,0,0,0,0,0,0
 2023-06-24 15:05:27.620,-70322.34315,35346.46754,7870.183333,31664.73289,24881.69371,-54860.23335,18694.90966,-71984.53063,-0.016,0.094,-0.986,192,0,0,0,0,0,0,0,0,0,0
 2023-06-24 15:05:27.620,-70636.47457,35967.86838,8521.848443,32162.99798,25524.1499,-55626.31704,19332.20259,-72486.90843,-0.016,0.094,-0.986,192,0,0,0,0,0,0,0,0,0,0
 2023-06-24 15:05:27.620,-70732.18474,37544.1134,10104.24019,33683.34129,27103.74768,-56943.46064,20900.24452,-73341.01329,-0.016,0.094,-0.986,192,0,0,0,0,0,0,0,0,0,0
 2023-06-24 15:05:27.620,-70473.70916,38088.49014,10625.05819,34297.81309,27624.2751,-57028.82195,21416.18984,-73386.34263,-0.022,0.096,-0.986,192,255,80,3,0,225,48,0,0,0,0
 2023-06-24 15:05:27.620,-70205.51058,36746.46905,9255.566806,33075.82087,26251.85564,-55705.71044,20047.39136,-72519.18435,-0.022,0.096,-0.986,192,0,0,0,0,0,0,0,0,0,0
 2023-06-24 15:05:27.620,-70347.06418,35334.75522,7855.900568,31649.06432,24853.15053,-54840.16148,18656.64347,-71971.74543,-0.022,0.096,-0.986,192,0,0,0,0,0,0,0,0,0,0
 2023-06-24 15:05:27.620,-70683.99437,35793.72594,8342.766266,31984.38519,25335.1659,-55609.03914,19144.40324,-72479.82293,-0.022,0.096,-0.986,192,0,0,0,0,0,0,0,0,0,0
 2023-06-24 15:05:27.620,-70779.05634,37421.1341,9979.785678,33539.46311,26963.49048,-56927.52384,20769.88915,-73336.09591,-0.022,0.096,-0.986,192,0,0,0,0,0,0,0,0,0,0
 2023-06-24 15:05:27.620,-70521.78777,38002.8159,10533.10311,34202.32644,27526.8215,-57033.02408,21316.65752,-73395.95388,-0.022,0.096,-0.986,192,0,0,0,0,0,0,0,0,0,0
 2023-06-24 15:05:27.621,-70252.40454,36688.33216,9187.461041,33009.25738,26188.37669,-55724.19533,19987.77926,-72538.16098,-0.022,0.096,-0.986,192,0,0,0,0,0,0,0,0,0,0
 2023-06-24 15:05:27.621,-70368.65596,35400.15643,7915.736188,31704.25078,24916.96476,-54830.57258,18729.66662,-71966.42571,-0.022,0.096,-0.986,192,0,0,0,0,0,0,0,0,0,0
 2023-06-24 15:05:27.621,-70685.08961,35936.35242,8482.956407,32132.04081,25482.10627,-55571.48821,19283.40874,-72454.00667,-0.022,0.096,-0.986,192,0,0,0,0,0,0,0,0,0,0
 2023-06-24 15:05:27.621,-70788.66759,37483.07079,10040.35891,33613.40268,27035.35134,-56894.21974,20836.475,-73314.72764,-0.022,0.096,-0.986,192,0,0,0,0,0,0,0,0,0,0
 2023-06-24 15:05:27.621,-70533.58949,38066.40662,10597.31967,34269.33697,27599.12939,-57013.30984,21394.86628,-73383.77218,-0.018,0.094,-0.984,192,255,112,2,240,225,64,0,0,0,0
 2023-06-24 15:05:27.621,-70262.50753,36766.22799,9263.881655,33094.73045,26272.75452,-55715.85813,20064.22222,-72536.17168,-0.018,0.094,-0.984,192,0,0,0,0,0,0,0,0,0,0
 2023-06-24 15:05:27.621,-70387.96787,35375.23423,7890.121089,31690.83973,24897.07171,-54815.48516,18683.62202,-71967.43154,-0.018,0.094,-0.984,192,0,0,0,0,0,0,0,0,0,0
 2023-06-24 15:05:27.621,-70712.96224,35860.17768,8411.386122,32050.27813,25408.52432,-55543.16855,19203.12127,-72450.49744,-0.018,0.094,-0.984,192,0,0,0,0,0,0,0,0,0,0
 2023-06-24 15:05:27.621,-70824.27392,37408.41596,9968.430992,33524.73331,26961.32236,-56873.87966,20759.09326,-73316.1358,-0.018,0.094,-0.984,192,0,0,0,0,0,0,0,0,0,0
 2023-06-24 15:05:27.621,-70574.13555,38003.62057,10536.00884,34200.62771,27537.7515,-57016.52849,21326.49229,-73401.47476,-0.018,0.094,-0.984,192,0,0,0,0,0,0,0,0,0,0
 2023-06-24 15:05:27.621,-70303.143,36710.41569,9213.791396,33027.60816,26218.08216,-55732.48783,20010.39922,-72561.33974,-0.018,0.094,-0.984,192,0,0,0,0,0,0,0,0,0,0
 2023-06-24 15:05:27.621,-70410.92311,35385.29252,7905.297924,31693.27607,24909.74515,-54806.05272,18710.84645,-71970.31492,-0.018,0.094,-0.984,192,0,0,0,0,0,0,0,0,0,0
 2023-06-24 15:05:27.621,-70730.03897,35867.39729,8420.997372,32074.1498,25420.41545,-55514.9383,19206.00464,-72438.4722,-0.018,0.094,-0.984,192,0,0,0,0,0,0,0,0,0,0
 2023-06-24 15:05:27.621,-70838.06495,37447.82209,10014.67675,33587.92169,27008.57395,-56839.94971,20797.27004,-73299.43905,-0.018,0.094,-0.984,192,0,0,0,0,0,0,0,0,0,0
 2023-06-24 15:05:27.621,-70592.37457,38045.93242,10585.36149,34247.65578,27584.5337,-57001.48577,21380.82938,-73397.27263,-0.02,0.094,-0.99,192,255,96,2,240,225,16,0,0,0,0
 2023-06-24 15:05:27.621,-70323.59485,36746.84903,9254.426867,33079.03952,26269.42411,-55733.71717,20074.57108,-72568.29114,-0.02,0.094,-0.99,192,0,0,0,0,0,0,0,0,0,0
 2023-06-24 15:05:27.621,-70436.60527,35365.33241,7885.538982,31691.44323,24903.66547,-54801.96235,18713.08162,-71976.21578,-0.02,0.094,-0.99,192,0,0,0,0,0,0,0,0,0,0
 2023-06-24 15:05:27.621,-70760.75027,35806.10881,8356.26672,32008.2345,25362.1221,-55502.1531,19172.32057,-72440.64032,-0.02,0.094,-0.99,192,0,0,0,0,0,0,0,0,0,0
 2023-06-24 15:05:27.621,-70867.5469,37444.7152,10006.51836,33575.78469,27006.40583,-56826.20339,20805.51783,-73298.50028,-0.02,0.094,-0.99,192,0,0,0,0,0,0,0,0,0,0
 2023-06-24 15:05:27.621,-70617.18501,38091.2394,10629.05915,34299.42242,27629.3266,-57000.01055,21421.59896,-73402.52529,-0.02,0.094,-0.99,192,0,0,0,0,0,0,0,0,0,0
 2023-06-24 15:05:27.621,-70346.84066,36791.44076,9301.566696,33116.90338,26303.82345,-55738.14282,20116.97234,-72579.55642,-0.02,0.094,-0.99,192,0,0,0,0,0,0,0,0,0,0
 2023-06-24 15:05:27.621,-70459.56051,35361.30909,7882.901476,31680.26736,24885.60526,-54795.16742,18699.42471,-71982.51897,-0.02,0.094,-0.99,192,0,0,0,0,0,0,0,0,0,0
 2023-06-24 15:05:27.621,-70780.68802,35797.79396,8348.555368,32010.96141,25353.8296,-55477.38737,19149.25356,-72436.86288,-0.02,0.094,-0.99,192,0,0,0,0,0,0,0,0,0,0
 2023-06-24 15:05:27.621,-70902.37092,37355.88936,9918.877175,33501.17457,26919.36814,-56809.01489,20712.33341,-73302.613,-0.02,0.094,-0.99,192,0,0,0,0,0,0,0,0,0,0
 2023-06-24 15:05:27.621,-70658.17811,38041.32796,10581.33818,34243.18543,27581.02448,-57000.27877,21378.48245,-73417.47861,-0.018,0.092,-0.988,192,255,112,2,224,225,32,0,0,0,0
 2023-06-24 15:05:27.621,-70381.59762,36792.17837,9297.610438,33124.63708,26306.66212,-55747.86583,20100.00737,-72597.61662,-0.018,0.092,-0.988,192,0,0,0,0,0,0,0,0,0,0
 2023-06-24 15:05:27.621,-70485.62264,35361.77848,7879.682825,31683.4413,24886.92401,-54787.41137,18685.45487,-71986.34112,-0.018,0.092,-0.988,192,0,0,0,0,0,0,0,0,0,0
 2023-06-24 15:05:27.621,-70803.39739,35806.08646,8360.446496,32010.15675,25357.29413,-55451.23582,19151.75696,-72425.5529,-0.018,0.092,-0.988,192,0,0,0,0,0,0,0,0,0,0
 2023-06-24 15:05:27.621,-70927.82956,37362.86311,9928.823701,33493.61968,26915.50129,-56783.17628,20702.31982,-73291.41477,-0.018,0.092,-0.988,192,0,0,0,0,0,0,0,0,0,0
 2023-06-24 15:05:27.621,-70689.04587,38027.93926,10569.78233,34222.2642,27557.93513,-56995.69666,21352.68853,-73422.77597,-0.018,0.092,-0.988,192,0,0,0,0,0,0,0,0,0,0
 2023-06-24 15:05:27.621,-70408.08444,36818.75459,9326.377133,33135.23181,26328.74564,-55752.44793,20131.67979,-72609.46305,-0.018,0.092,-0.988,192,0,0,0,0,0,0,0,0,0,0
 2023-06-24 15:05:27.621,-70508.26496,35376.01654,7893.652665,31698.32756,24907.39821,-54778.13539,18715.85324,-71991.37026,-0.018,0.092,-0.988,192,0,0,0,0,0,0,0,0,0,0
 2023-06-24 15:05:27.621,-70836.67914,35723.83204,8274.057004,31943.45915,25282.90752,-55438.24946,19076.78921,-72432.0349,-0.018,0.092,-0.988,192,0,0,0,0,0,0,0,0,0,0
 2023-06-24 15:05:27.621,-70958.20558,37314.02455,9879.403994,33459.01918,26881.6831,-56766.92656,20670.42389,-73295.0134,-0.018,0.092,-0.988,192,0,0,0,0,0,0,0,0,0,0
 2023-06-24 15:05:27.621,-70724.7416,37977.04434,10520.1391,34180.19821,27525.50274,-56999.45176,21320.1891,-73438.15397,-0.016,0.092,-0.988,192,255,128,2,224,225,32,0,0,0,0
 2023-06-24 15:05:27.621,-70448.07171,36740.92582,9251.878768,33067.03664,26261.57865,-55772.49745,20059.52836,-72634.51935,-0.016,0.092,-0.988,192,0,0,0,0,0,0,0,0,0,0
 2023-06-24 15:05:27.621,-70531.39902,35380.03986,7902.749825,31705.68129,24912.47206,-54773.32977,18716.85907,-71996.46646,-0.016,0.092,-0.988,192,0,0,0,0,0,0,0,0,0,0
 2023-06-24 15:05:27.621,-70848.25734,35770.45778,8326.516548,31982.93233,25326.53812,-55407.2923,19132.95914,-72417.50627,-0.016,0.092,-0.988,192,0,0,0,0,0,0,0,0,0,0
 2023-06-24 15:05:27.621,-70968.8003,37385.796,9954.30469,33515.03265,26947.84426,-56731.20847,20741.1001,-73277.78021,-0.016,0.092,-0.988,192,0,0,0,0,0,0,0,0,0,0
 2023-06-24 15:05:27.621,-70735.40339,38080.53292,10626.15342,34263.70433,27616.69786,-56978.41876,21408.56789,-73434.22007,-0.016,0.092,-0.988,192,0,0,0,0,0,0,0,0,0,0
 2023-06-24 15:05:27.621,-70466.86953,36801.83432,9316.497662,33105.28047,26309.81372,-55770.73166,20107.27168,-72648.24333,-0.016,0.092,-0.988,192,0,0,0,0,0,0,0,0,0,0
 2023-06-24 15:05:27.621,-70561.64093,35331.42481,7853.754801,31646.80679,24858.55965,-54771.07224,18660.44327,-72010.5257,-0.016,0.092,-0.988,192,0,0,0,0,0,0,0,0,0,0
 2023-06-24 15:05:27.621,-70885.67416,35664.97989,8217.037704,31875.28633,25221.93196,-55398.28454,19013.57848,-72427.96688,-0.016,0.092,-0.988,192,0,0,0,0,0,0,0,0,0,0
 2023-06-24 15:05:27.621,-71021.25985,37198.24251,9761.543245,33331.90481,26760.22372,-56731.81197,20548.58453,-73296.33216,-0.016,0.092,-0.988,192,0,0,0,0,0,0,0,0,0,0
 2023-06-24 15:05:27.621,-70784.57722,37970.91996,10512.20423,34151.40917,27508.04603,-56990.15343,21303.06766,-73456.90709,-0.018,0.094,-0.988,192,255,112,2,240,225,32,0,0,0,0
 2023-06-24 15:05:27.621,-70499.92776,36827.42707,9332.300345,33142.36202,26342.82724,-55785.88614,20137.84887,-72667.73405,-0.018,0.094,-0.988,192,0,0,0,0,0,0,0,0,0,0
 2023-06-24 15:05:27.621,-70581.48927,35399.88821,7914.596249,31720.09816,24922.66445,-54764.61259,18720.4577,-72014.2808,-0.018,0.094,-0.988,192,0,0,0,0,0,0,0,0,0,0
 2023-06-24 15:05:27.621,-70900.2028,35736.30431,8284.741138,31943.57091,25285.61208,-55370.56838,19082.08657,-72418.84737,-0.018,0.094,-0.988,192,0,0,0,0,0,0,0,0,0,0
 2023-06-24 15:05:27.621,-71036.10141,37270.12572,9836.354534,33399.20591,26832.12928,-56702.73235,20629.22962,-73284.59749,-0.018,0.094,-0.988,192,0,0,0,0,0,0,0,0,0,0
 2023-06-24 15:05:27.621,-70805.45375,38015.75756,10559.07584,34199.53247,27550.60375,-56983.64907,21346.76532,-73461.66801,-0.018,0.094,-0.988,192,0,0,0,0,0,0,0,0,0,0
 2023-06-24 15:05:27.621,-70522.39126,36876.04211,9386.011587,33182.41634,26381.89809,-55793.12811,20177.12089,-72683.67084,-0.018,0.094,-0.988,192,0,0,0,0,0,0,0,0,0,0
 2023-06-24 15:05:27.621,-70598.25308,35440.03194,7961.601968,31750.45183,24963.6352,-54757.0577,18752.64421,-72019.98049,-0.018,0.094,-0.988,192,0,0,0,0,0,0,0,0,0,0
 2023-06-24 15:05:27.621,-70915.11141,35762.05352,8312.524356,31963.50866,25313.26119,-55345.51207,19091.80958,-72413.88529,-0.018,0.094,-0.988,192,0,0,0,0,0,0,0,0,0,0
 2023-06-24 15:05:27.621,-71055.05568,37295.58436,9861.790819,33417.80256,26854.48102,-56675.46322,20639.35496,-73279.83657,-0.018,0.094,-0.988,192,0,0,0,0,0,0,0,0,0,0
 2023-06-24 15:05:27.621,-70824.25157,38075.97316,10624.09706,34245.26414,27612.20516,-56969.9251,21413.21706,-73463.97024,-0.02,0.098,-0.988,192,255,96,3,16,225,32,0,0,0,0
 2023-06-24 15:05:27.621,-70546.15117,36917.88458,9432.570271,33225.48815,26432.41303,-55797.24083,20218.82924,-72699.65234,-0.02,0.098,-0.988,192,0,0,0,0,0,0,0,0,0,0
 2023-06-24 15:05:27.621,-70626.84096,35401.85516,7922.642877,31719.67348,24927.6936,-54754.86723,18711.94168,-72034.91146,-0.02,0.098,-0.988,192,0,0,0,0,0,0,0,0,0,0
 2023-06-24 15:05:27.621,-70938.58074,35718.62408,8269.899579,31918.11227,25266.30017,-55327.2507,19052.87284,-72418.33328,-0.02,0.098,-0.988,192,0,0,0,0,0,0,0,0,0,0
 2023-06-24 15:05:27.621,-71078.70383,37262.68259,9830.766598,33374.12725,26813.7785,-56657.93945,20601.55816,-73283.79283,-0.02,0.098,-0.988,192,0,0,0,0,0,0,0,0,0,0
 2023-06-24 15:05:27.621,-70846.51391,38092.91578,10639.18449,34266.36419,27624.1857,-56965.99119,21406.57859,-73475.88372,-0.02,0.098,-0.988,192,0,0,0,0,0,0,0,0,0,0
 2023-06-24 15:05:27.621,-70561.43976,36977.56374,9492.808222,33281.61338,26485.27491,-55803.49932,20268.24895,-72717.01964,-0.02,0.098,-0.988,192,0,0,0,0,0,0,0,0,0,0
 2023-06-24 15:05:27.621,-70636.65338,35460.0591,7979.595122,31780.17965,24983.30474,-54744.65248,18773.45369,-72039.42651,-0.02,0.098,-0.988,192,0,0,0,0,0,0,0,0,0,0
 2023-06-24 15:05:27.621,-70940.50299,35817.12822,8367.889627,32019.00804,25365.78779,-55292.78431,19172.83466,-72404.18463,-0.02,0.098,-0.988,192,0,0,0,0,0,0,0,0,0,0
 2023-06-24 15:05:27.621,-71088.51625,37311.27528,9878.956959,33437.74032,26867.93677,-56629.48568,20664.61243,-73274.74037,-0.02,0.098,-0.988,192,0,0,0,0,0,0,0,0,0,0
 2023-06-24 15:05:27.621,-70880.9803,38000.89365,10546.62592,34196.67145,27542.80299,-56975.0213,21332.43785,-73495.37444,-0.022,0.1,-0.99,192,255,80,3,32,225,16,0,0,0,0
 2023-06-24 15:05:27.621,-70592.15106,36931.6756,9443.701439,33249.29276,26447.9922,-55823.05709,20242.7009,-72742.16536,-0.022,0.1,-0.99,192,0,0,0,0,0,0,0,0,0,0
 2023-06-24 15:05:27.621,-70654.1548,35447.09509,7964.932378,31776.15634,24976.10748,-54741.50088,18777.81228,-72049.10482,-0.022,0.1,-0.99,192,0,0,0,0,0,0,0,0,0,0
 2023-06-24 15:05:27.621,-70966.36396,35704.63189,8255.460352,31926.62828,25261.22633,-55279.79794,19051.75526,-72410.01843,-0.022,0.1,-0.99,192,0,0,0,0,0,0,0,0,0,0
 2023-06-24 15:05:27.621,-71117.26059,37207.65259,9778.105888,33342.7454,26768.35975,-56614.26414,20557.50287,-73278.60722,-0.022,0.1,-0.99,192,0,0,0,0,0,0,0,0,0,0
 2023-06-24 15:05:27.621,-70894.72662,38051.11802,10599.5325,34232.56835,27585.8301,-56960.9844,21371.28518,-73495.79912,-0.022,0.1,-0.99,192,0,0,0,0,0,0,0,0,0,0
 2023-06-24 15:05:27.621,-70603.90807,37012.18659,9529.487435,33314.80572,26518.35549,-55824.82288,20307.11863,-72751.55309,-0.022,0.1,-0.99,192,0,0,0,0,0,0,0,0,0,0
 2023-06-24 15:05:27.621,-70676.90887,35428.6996,7950.940186,31758.87844,24944.14448,-54742.99845,18738.3838,-72057.44202,-0.022,0.1,-0.99,192,0,0,0,0,0,0,0,0,0,0
 2023-06-24 15:05:27.621,-70996.47176,35634.02273,8185.052357,31856.51086,25180.31301,-55268.84559,18978.39683,-72411.73952,-0.022,0.1,-0.99,192,0,0,0,0,0,0,0,0,0,0
 2023-06-24 15:05:27.621,-71148.70949,37160.80334,9726.719228,33289.70471,26716.21313,-56599.33318,20513.0229,-73277.15436,-0.022,0.1,-0.99,192,0,0,0,0,0,0,0,0,0,0
 2023-06-24 15:05:27.621,-70929.1036,38009.1638,10551.20803,34187.17196,27543.69706,-56962.32551,21339.00927,-73506.93029,-0.018,0.1,-0.992,192,255,112,3,32,225,0,0,0,0,0
 2023-06-24 15:05:27.622,-70634.06058,36991.93591,9501.056016,33290.15175,26498.79771,-55837.56338,20293.46172,-72771.87082,-0.018,0.1,-0.992,192,0,0,0,0,0,0,0,0,0,0
 2023-06-24 15:05:27.622,-70690.38697,35453.42063,7972.062584,31771.1272,24973.40291,-54729.85562,18769.56448,-72063.38758,-0.018,0.1,-0.992,192,0,0,0,0,0,0,0,0,0,0
 2023-06-24 15:05:28.099,-71008.74287,35613.43677,8165.025194,31830.00169,25164.82325,-55238.11194,18940.48827,-72409.32553,-0.018,0.1,-0.992,192,0,0,0,0,0,0,0,0,0,0
 2023-06-24 15:05:28.099,-71173.87756,37066.32251,9633.311288,33189.79242,26624.41452,-56576.31088,20395.76565,-73280.1942,-0.018,0.1,-0.992,192,0,0,0,0,0,0,0,0,0,0
 2023-06-24 15:05:28.099,-70962.85474,37927.8705,10473.78158,34092.1994,27461.21913,-56959.0398,21232.99494,-73521.68244,-0.018,0.1,-0.992,192,0,0,0,0,0,0,0,0,0,0
 2023-06-24 15:05:28.099,-70671.29858,36932.8379,9447.277718,33223.67766,26441.6443,-55857.18821,20210.13441,-72801.91157,-0.018,0.1,-0.992,192,0,0,0,0,0,0,0,0,0,0
 2023-06-24 15:05:28.099,-70713.56573,35453.86767,7975.057718,31767.72973,24973.06764,-54733.72248,18747.72683,-72079.34673,-0.018,0.1,-0.992,192,0,0,0,0,0,0,0,0,0,0
 2023-06-24 15:05:28.099,-71021.10338,35638.1578,8188.80745,31847.19018,25181.94469,-55220.92345,18964.24818,-72408.67733,-0.018,0.1,-0.992,192,0,0,0,0,0,0,0,0,0,0
 2023-06-24 15:05:28.099,-71182.52768,37087.82489,9654.925424,33216.79332,26644.79931,-56552.01454,20428.01922,-73276.3944,-0.018,0.1,-0.992,192,0,0,0,0,0,0,0,0,0,0
 2023-06-24 15:05:28.099,-70975.99756,37919.30979,10462.02456,34106.50451,27460.61563,-56955.30706,21228.39048,-73532.45598,-0.024,0.1,-0.994,192,255,64,3,32,224,240,0,0,0,0
 2023-06-24 15:05:28.099,-70681.26746,36949.24408,9463.862713,33251.63969,26468.22053,-55869.32521,20241.91859,-72822.00579,-0.024,0.1,-0.994,192,0,0,0,0,0,0,0,0,0,0
 2023-06-24 15:05:28.099,-70728.11672,35402.50336,7925.392142,31724.54616,24926.77718,-54741.90321,18709.32653,-72099.06096,-0.024,0.1,-0.994,192,0,0,0,0,0,0,0,0,0,0
 2023-06-24 15:05:28.099,-71040.99644,35545.26395,8100.562763,31761.40419,25098.68444,-55216.09547,18879.35625,-72422.66952,-0.024,0.1,-0.994,192,0,0,0,0,0,0,0,0,0,0
 2023-06-24 15:05:28.099,-71196.92221,37072.06691,9638.34043,33205.81862,26639.01021,-56537.77647,20423.63828,-73283.25639,-0.024,0.1,-0.994,192,0,0,0,0,0,0,0,0,0,0
 2023-06-24 15:05:28.099,-70990.81677,37936.69944,10479.81655,34117.23335,27478.47467,-56951.9543,21266.74608,-73546.24701,-0.024,0.1,-0.994,192,0,0,0,0,0,0,0,0,0,0
 2023-06-24 15:05:28.099,-70697.15955,36968.0866,9475.418565,33271.15277,26484.26908,-55883.33975,20272.20521,-72848.26909,-0.024,0.1,-0.994,192,0,0,0,0,0,0,0,0,0,0
 2023-06-24 15:05:28.099,-70732.63177,35436.74623,7949.107343,31768.44499,24966.1386,-54743.95958,18753.02419,-72113.16492,-0.024,0.1,-0.994,192,0,0,0,0,0,0,0,0,0,0
 2023-06-24 15:05:28.099,-71031.47459,35624.74675,8171.551904,31846.7208,25179.10602,-55191.12857,18961.11893,-72414.55584,-0.024,0.1,-0.994,192,0,0,0,0,0,0,0,0,0,0
 2023-06-24 15:05:28.099,-71198.26331,37077.85601,9644.733029,33216.03337,26643.4582,-56518.12929,20416.9104,-73279.09896,-0.024,0.1,-0.994,192,0,0,0,0,0,0,0,0,0,0
 2023-06-24 15:05:28.100,-71003.13258,37928.49635,10477.06729,34110.1255,27472.64087,-56952.96013,21247.99296,-73556.10413,-0.022,0.104,-0.992,192,255,80,3,64,225,0,0,0,0,0
 2023-06-24 15:05:28.100,-70705.63086,37035.79003,9549.492246,33333.35767,26550.22908,-55895.72262,20325.02238,-72864.85408,-0.022,0.104,-0.992,192,0,0,0,0,0,0,0,0,0,0
 2023-06-24 15:05:28.100,-70745.88636,35466.58581,7985.272465,31789.45563,24989.87615,-54747.80408,18764.42358,-72127.26887,-0.022,0.104,-0.992,192,0,0,0,0,0,0,0,0,0,0
 2023-06-24 15:05:28.100,-71048.61838,35608.6982,8161.76184,31833.24269,25159.28002,-55177.67282,18935.19091,-72420.12142,-0.022,0.104,-0.992,192,0,0,0,0,0,0,0,0,0,0
 2023-06-24 15:05:28.100,-71212.03199,37088.76366,9656.937081,33229.51147,26654.47761,-56495.71049,20435.61881,-73278.11548,-0.022,0.104,-0.992,192,0,0,0,0,0,0,0,0,0,0
 2023-06-24 15:05:28.100,-71014.9343,37966.42726,10508.51619,34149.9563,27512.24816,-56944.93585,21294.70811,-73563.9943,-0.022,0.104,-0.992,192,0,0,0,0,0,0,0,0,0,0
 2023-06-24 15:05:28.100,-70724.92042,37023.45187,9532.8849,33324.6852,26546.96572,-55910.85475,20332.21964,-72889.86568,-0.022,0.104,-0.992,192,0,0,0,0,0,0,0,0,0,0
 2023-06-24 15:05:28.100,-70760.41499,35451.61014,7964.95473,31780.62669,24979.16966,-54753.70494,18755.63935,-72143.80916,-0.022,0.104,-0.992,192,0,0,0,0,0,0,0,0,0,0
 2023-06-24 15:05:28.100,-71060.4201,35577.07048,8122.467473,31806.48766,25128.47932,-55164.53,18906.73714,-72423.6977,-0.022,0.104,-0.992,192,0,0,0,0,0,0,0,0,0,0
 2023-06-24 15:05:28.100,-71235.16604,36985.90094,9546.944147,33127.34164,26548.68681,-56488.49088,20323.12248,-73288.24082,-0.022,0.104,-0.992,192,0,0,0,0,0,0,0,0,0,0
 2023-06-24 15:05:28.100,-71043.49983,37882.9435,10424.6748,34054.71552,27419.1755,-56955.44117,21186.12333,-73585.67549,-0.018,0.092,-0.994,192,255,112,2,224,224,240,0,0,0,0
 2023-06-24 15:05:28.100,-70742.6677,37045.13306,9560.869284,33329.71434,26558.52158,-55927.88678,20340.73565,-72912.93268,-0.018,0.092,-0.994,192,0,0,0,0,0,0,0,0,0,0
 2023-06-24 15:05:28.100,-70776.55295,35440.2331,7956.684584,31762.29826,24961.51179,-54763.38324,18742.63063,-72160.9753,-0.018,0.092,-0.994,192,0,0,0,0,0,0,0,0,0,0
 2023-06-24 15:05:28.100,-71082.03424,35484.13193,8032.389943,31703.44611,25030.82455,-55164.03826,18820.72762,-72434.49359,-0.018,0.092,-0.994,192,0,0,0,0,0,0,0,0,0,0
 2023-06-24 15:05:28.100,-71253.56153,36926.46765,9490.48364,33053.04444,26482.52564,-56479.30431,20269.45594,-73291.25831,-0.018,0.092,-0.994,192,0,0,0,0,0,0,0,0,0,0
 2023-06-24 15:05:28.100,-71051.85938,37921.50026,10468.75244,34085.1586,27459.98978,-56952.13311,21229.55277,-73588.17888,-0.018,0.092,-0.994,192,0,0,0,0,0,0,0,0,0,0
 2023-06-24 15:05:28.100,-70739.82903,37158.03172,9677.16541,33440.35547,26672.69429,-55934.94993,20441.11734,-72919.41469,-0.018,0.092,-0.994,192,0,0,0,0,0,0,0,0,0,0
 2023-06-24 15:05:28.100,-70762.96309,35589.74392,8116.92424,31907.74106,25112.98956,-54757.48238,18896.92472,-72158.69542,-0.018,0.092,-0.994,192,0,0,0,0,0,0,0,0,0,0
 2023-06-24 15:05:28.100,-71061.94002,35637.08492,8193.456613,31869.47487,25194.37226,-55135.40568,18968.85264,-72418.35563,-0.018,0.092,-0.994,192,0,0,0,0,0,0,0,0,0,0
 2023-06-24 15:05:28.100,-71242.40801,36999.28963,9574.28033,33145.15598,26571.6197,-56451.87872,20349.63165,-73278.20489,-0.018,0.092,-0.994,192,0,0,0,0,0,0,0,0,0,0
 2023-06-24 15:05:28.100,-71055.21215,37923.06488,10477.62608,34097.87674,27471.7915,-56949.58501,21247.76944,-73592.91745,-0.02,0.094,-0.986,192,255,96,2,240,225,48,0,0,0,0
 2023-06-24 15:05:28.100,-70758.42568,37075.15145,9593.815755,33370.12629,26596.74306,-55961.72732,20372.18456,-72944.53805,-0.02,0.094,-0.986,192,0,0,0,0,0,0,0,0,0,0
 2023-06-24 15:05:28.100,-70784.2643,35463.03188,7981.204448,31801.9726,24993.40773,-54782.24811,18764.73651,-72183.12588,-0.02,0.094,-0.986,192,0,0,0,0,0,0,0,0,0,0
 2023-06-24 15:05:28.100,-71082.99537,35494.6596,8046.516245,31723.7862,25049.53296,-55143.85464,18832.39524,-72432.01255,-0.02,0.094,-0.986,192,0,0,0,0,0,0,0,0,0,0
 2023-06-24 15:05:28.100,-71260.17764,36891.57658,9461.00169,33024.81419,26454.3848,-56449.91177,20241.53861,-73282.787,-0.02,0.094,-0.986,192,0,0,0,0,0,0,0,0,0,0
 2023-06-24 15:05:28.100,-71076.89334,37849.34883,10396.39984,34031.64852,27395.16972,-56961.49849,21159.74828,-73606.23909,-0.02,0.094,-0.986,192,0,0,0,0,0,0,0,0,0,0
 2023-06-24 15:05:28.100,-70780.62097,37046.49652,9567.038365,33338.58798,26562.76841,-55988.72822,20325.8941,-72970.06374,-0.02,0.094,-0.986,192,0,0,0,0,0,0,0,0,0,0
 2023-06-24 15:05:28.100,-70791.86389,35504.69554,8026.980821,31832.99683,25030.51162,-54789.51243,18800.20872,-72196.04518,-0.02,0.094,-0.986,192,0,0,0,0,0,0,0,0,0,0
 2023-06-24 15:05:28.100,-71092.4725,35474.63244,8026.533786,31708.54231,25027.40473,-55135.24921,18804.92494,-72437.7793,-0.02,0.094,-0.986,192,0,0,0,0,0,0,0,0,0,0
 2023-06-24 15:05:28.100,-71274.43806,36836.8595,9408.184517,32975.99798,26402.79697,-56437.19362,20182.55236,-73287.61498,-0.02,0.094,-0.986,192,0,0,0,0,0,0,0,0,0,0
 2023-06-24 15:05:28.100,-71085.96815,37863.00574,10417.27637,34035.53772,27408.46901,-56953.2507,21187.64325,-73613.54811,-0.02,0.094,-0.986,192,0,0,0,0,0,0,0,0,0,0
 2023-06-24 15:05:28.100,-70777.71524,37155.1707,9679.802916,33436.8239,26674.41537,-55987.29771,20456.24947,-72981.82076,-0.026,0.096,-0.99,192,255,48,3,0,225,16,0,0,0,0
 2023-06-24 15:05:28.100,-70785.42659,35596.78472,8121.193423,31925.39894,25123.47253,-54783.92449,18903.36202,-72205.23175,-0.026,0.096,-0.99,192,0,0,0,0,0,0,0,0,0,0
 2023-06-24 15:05:28.100,-71085.54346,35540.68184,8094.483089,31781.81133,25098.1033,-55115.155,18878.21631,-72436.41584,-0.026,0.096,-0.99,192,0,0,0,0,0,0,0,0,0,0
 2023-06-24 15:05:28.100,-71264.71505,36919.67272,9486.348568,33067.41662,26484.55965,-56408.76221,20254.07794,-73280.2836,-0.026,0.096,-0.99,192,0,0,0,0,0,0,0,0,0,0
 2023-06-24 15:05:28.100,-71093.34422,37856.23316,10404.26766,34033.50372,27399.50596,-56951.84254,21172.01938,-73626.33331,-0.026,0.096,-0.99,192,0,0,0,0,0,0,0,0,0,0
 2023-06-24 15:05:28.100,-70789.13698,37161.51859,9682.440422,33448.46916,26680.24918,-56005.67085,20448.04638,-73006.7206,-0.026,0.096,-0.99,192,0,0,0,0,0,0,0,0,0,0
 2023-06-24 15:05:28.100,-70790.90277,35612.98974,8132.793979,31939.70405,25138.87288,-54794.60863,18915.65548,-72224.49895,-0.026,0.096,-0.99,192,0,0,0,0,0,0,0,0,0,0
 2023-06-24 15:05:28.100,-71081.14017,35593.05198,8142.516988,31819.854,25144.46081,-55102.86154,18916.37074,-72439.14276,-0.026,0.096,-0.99,192,0,0,0,0,0,0,0,0,0,0
 2023-06-24 15:05:28.100,-71267.17374,36931.31798,9500.966609,33066.96958,26493.05332,-56393.92065,20251.86512,-73281.24473,-0.026,0.096,-0.99,192,0,0,0,0,0,0,0,0,0,0
 2023-06-24 15:05:28.100,-71088.76212,37949.88697,10503.15177,34115.44521,27492.60098,-56942.27599,21252.39626,-73629.08258,-0.026,0.096,-0.99,192,0,0,0,0,0,0,0,0,0,0
 2023-06-24 15:05:28.100,-70784.46547,37262.95081,9784.78906,33536.60208,26780.4744,-56013.15868,20549.5233,-73019.77402,-0.014,0.094,-0.988,192,255,144,2,240,225,32,0,0,0,0
 2023-06-24 15:05:28.100,-70790.90277,35646.83028,8165.919264,31968.20253,25167.86309,-54799.36955,18939.14717,-72236.34538,-0.014,0.094,-0.988,192,0,0,0,0,0,0,0,0,0,0
 2023-06-24 15:05:28.100,-71085.47641,35585.05006,8132.659868,31809.03576,25128.76989,-55089.83047,18893.99664,-72439.52274,-0.014,0.094,-0.988,192,0,0,0,0,0,0,0,0,0,0
 2023-06-24 15:05:28.100,-71265.9891,36964.06328,9529.845062,33096.45153,26518.13197,-56367.43383,20283.33638,-73269.93475,-0.014,0.094,-0.988,192,0,0,0,0,0,0,0,0,0,0
 2023-06-24 15:05:28.100,-71105.66003,37891.66068,10437.95174,34057.93417,27434.17352,-56943.68415,21194.77346,-73638.02327,-0.014,0.094,-0.988,192,0,0,0,0,0,0,0,0,0,0
 2023-06-24 15:05:28.100,-70806.97367,37206.37854,9722.762969,33470.48562,26716.3696,-56032.73881,20475.96371,-73042.5728,-0.014,0.094,-0.988,192,0,0,0,0,0,0,0,0,0,0
 2023-06-24 15:05:28.100,-70804.69379,35633.68745,8146.607357,31956.15494,25149.78053,-54807.75145,18908.43587,-72249.01882,-0.014,0.094,-0.988,192,0,0,0,0,0,0,0,0,0,0
 2023-06-24 15:05:28.100,-71103.55897,35504.8967,8043.096428,31744.34981,25051.63402,-55090.76924,18814.5809,-72447.85994,-0.014,0.094,-0.988,192,0,0,0,0,0,0,0,0,0,0
 2023-06-24 15:05:28.100,-71295.40399,36833.52909,9391.82304,32969.91831,26388.73772,-56371.30068,20166.54851,-73281.71412,-0.014,0.094,-0.988,192,0,0,0,0,0,0,0,0,0,0
 2023-06-24 15:05:28.100,-71125.62014,37868.28075,10412.40369,34035.35891,27408.62547,-56949.87559,21168.51016,-73649.8697,-0.014,0.094,-0.988,192,0,0,0,0,0,0,0,0,0,0
 2023-06-24 15:05:28.100,-70825.2574,37193.21337,9710.290695,33473.70428,26706.62423,-56054.59881,20468.81115,-73063.60579,-0.016,0.092,-0.988,192,255,128,2,224,225,32,0,0,0,0
 2023-06-24 15:05:28.100,-70817.07666,35605.05487,8122.288659,31931.16569,25125.0595,-54823.86706,18889.99568,-72266.96727,-0.016,0.092,-0.988,192,0,0,0,0,0,0,0,0,0,0
 2023-06-24 15:05:28.100,-71100.13915,35533.1046,8082.256685,31772.24478,25087.19565,-55076.41942,18841.98413,-72445.513,-0.016,0.092,-0.988,192,0,0,0,0,0,0,0,0,0,0
 2023-06-24 15:05:28.100,-71298.28737,36796.67107,9366.073831,32944.12439,26360.19455,-56353.79927,20114.69246,-73279.32248,-0.016,0.092,-0.988,192,0,0,0,0,0,0,0,0,0,0
 2023-06-24 15:05:28.100,-71136.28192,37808.13221,10362.5146,33978.8537,27353.39431,-56951.14964,21109.23333,-73660.44207,-0.016,0.092,-0.988,192,0,0,0,0,0,0,0,0,0,0
 2023-06-24 15:05:28.100,-70840.30012,37133.80243,9660.178084,33418.00373,26658.38917,-56074.98361,20417.93858,-73086.67279,-0.016,0.092,-0.988,192,0,0,0,0,0,0,0,0,0,0
 2023-06-24 15:05:28.100,-70824.92212,35592.96257,8115.314915,31921.1074,25120.54445,-54835.40056,18889.74981,-72281.63001,-0.016,0.092,-0.988,192,0,0,0,0,0,0,0,0,0,0
 2023-06-24 15:05:28.101,-71117.48411,35437.5956,7987.485288,31674.74647,24990.56905,-55080.50979,18767.59753,-72458.11939,-0.016,0.092,-0.988,192,0,0,0,0,0,0,0,0,0,0
 2023-06-24 15:05:28.101,-71324.50596,36659.56547,9232.388047,32802.41433,26226.32995,-56356.01209,19998.41869,-73291.43712,-0.016,0.092,-0.988,192,0,0,0,0,0,0,0,0,0,0
 2023-06-24 15:05:28.101,-71162.41111,37724.112,10282.83063,33884.17171,27274.82793,-56965.90179,21048.59305,-73680.49159,-0.016,0.092,-0.988,192,0,0,0,0,0,0,0,0,0,0
 2023-06-24 15:05:28.101,-70859.23205,37120.5702,9648.890453,33392.031,26643.92759,-56098.69881,20408.68496,-73111.39382,-0.014,0.086,-0.988,192,255,144,2,176,225,32,0,0,0,0
 2023-06-24 15:05:28.101,-70842.60235,35553.22117,8076.221714,31883.40001,25080.57953,-54852.522,18837.11145,-72303.11004,-0.014,0.086,-0.988,192,0,0,0,0,0,0,0,0,0,0
 2023-06-24 15:05:28.101,-71120.92628,35465.66939,8017.548384,31702.84262,25021.39211,-55069.73625,18789.18931,-72460.42162,-0.014,0.086,-0.988,192,0,0,0,0,0,0,0,0,0,0
 2023-06-24 15:05:28.101,-71310.58083,36799.84502,9374.52279,32935.13899,26368.19647,-56322.81975,20139.77112,-73278.16019,-0.014,0.086,-0.988,192,0,0,0,0,0,0,0,0,0,0
 2023-06-24 15:05:28.101,-71152.33048,37859.8765,10418.34926,34012.1578,27407.66435,-56947.70747,21172.73464,-73679.08343,-0.014,0.086,-0.988,192,0,0,0,0,0,0,0,0,0,0
 2023-06-24 15:05:28.101,-70849.50904,37261.92263,9788.186525,33529.82951,26778.01571,-56098.51999,20533.72062,-73122.77086,-0.014,0.086,-0.988,192,0,0,0,0,0,0,0,0,0,0
 2023-06-24 15:05:28.101,-70831.42648,35648.75253,8171.261331,31970.28124,25168.13131,-54847.60461,18935.86146,-72313.03421,-0.014,0.086,-0.988,192,0,0,0,0,0,0,0,0,0,0
 2023-06-24 15:05:28.101,-71116.25476,35475.57121,8025.662068,31701.56857,25022.01796,-55054.82764,18797.54887,-72464.78021,-0.014,0.086,-0.988,192,0,0,0,0,0,0,0,0,0,0
 2023-06-24 15:05:28.101,-71309.82087,36777.47092,9347.968918,32916.22942,26338.82628,-56302.34555,20104.79064,-73278.60722,-0.014,0.086,-0.988,192,0,0,0,0,0,0,0,0,0,0
 2023-06-24 15:05:28.101,-71157.91841,37818.03403,10377.80319,33976.46206,27364.72665,-56942.76773,21135.20606,-73691.17572,-0.014,0.086,-0.988,192,0,0,0,0,0,0,0,0,0,0
 2023-06-24 15:05:28.101,-70854.82876,37265.4542,9792.142784,33538.52433,26786.24115,-56110.07584,20548.65158,-73143.75915,-0.02,0.088,-0.99,192,255,96,2,192,225,16,0,0,0,0
 2023-06-24 15:05:28.101,-70835.40509,35655.63687,8178.927979,31985.43572,25175.41798,-54855.65124,18940.48827,-72329.23923,-0.02,0.088,-0.99,192,0,0,0,0,0,0,0,0,0,0
 2023-06-24 15:05:28.101,-71119.78634,35476.33117,8030.445341,31717.46066,25025.99657,-55043.98704,18804.4332,-72469.09409,-0.02,0.088,-0.99,192,0,0,0,0,0,0,0,0,0,0
 2023-06-24 15:05:28.101,-71323.45543,36730.24168,9304.517127,32884.02055,26296.06739,-56292.44373,20063.52932,-73283.83753,-0.02,0.088,-0.99,192,0,0,0,0,0,0,0,0,0,0
 2023-06-24 15:05:28.101,-71169.49662,37824.69485,10382.31824,33994.52227,27377.89182,-56943.95237,21145.77843,-73701.77045,-0.02,0.088,-0.99,192,0,0,0,0,0,0,0,0,0,0
 2023-06-24 15:05:28.101,-70872.33017,37241.0908,9772.36149,33516.50787,26771.39959,-56131.31,20540.31438,-73170.31302,-0.02,0.088,-0.99,192,0,0,0,0,0,0,0,0,0,0
 2023-06-24 15:05:28.101,-70839.24959,35666.41041,8195.512974,31993.25883,25196.18275,-54860.47922,18978.82151,-72345.04191,-0.02,0.088,-0.99,192,0,0,0,0,0,0,0,0,0,0
 2023-06-24 15:05:28.101,-71118.26642,35453.86767,8011.893393,31690.54916,25007.89166,-55029.14548,18799.53817,-72474.41381,-0.02,0.088,-0.99,192,0,0,0,0,0,0,0,0,0,0
 2023-06-24 15:05:28.101,-71319.94621,36726.10661,9305.299438,32875.63865,26296.98381,-56269.37673,20072.55942,-73284.0834,-0.02,0.088,-0.99,192,0,0,0,0,0,0,0,0,0,0
 2023-06-24 15:05:28.101,-71172.11177,37816.26824,10383.59229,33992.66708,27376.46131,-56938.45385,21151.74635,-73712.09695,-0.02,0.088,-0.99,192,0,0,0,0,0,0,0,0,0,0
 2023-06-24 15:05:28.101,-70874.543,37275.40073,9810.426511,33551.5107,26808.0341,-56141.86003,20595.03145,-73190.38489,-0.024,0.092,-0.99,192,255,64,2,224,225,16,0,0,0,0
 2023-06-24 15:05:28.101,-70835.4945,35719.27228,8248.218387,32057.22953,25252.17387,-54863.78728,19033.29271,-72361.26928,-0.024,0.092,-0.99,192,0,0,0,0,0,0,0,0,0,0
 2023-06-24 15:05:28.101,-71118.31112,35449.39732,8007.75832,31715.65017,25012.07143,-55022.3729,18779.51101,-72485.72379,-0.024,0.092,-0.99,192,0,0,0,0,0,0,0,0,0,0
 2023-06-24 15:05:28.101,-71323.45543,36705.43125,9283.238266,32867.10028,26278.56598,-56259.25139,20049.00069,-73293.31467,-0.024,0.092,-0.99,192,0,0,0,0,0,0,0,0,0,0
 2023-06-24 15:05:28.101,-71178.88435,37801.73961,10366.67202,33980.41832,27359.85397,-56941.89601,21137.21772,-73729.37485,-0.024,0.092,-0.99,192,0,0,0,0,0,0,0,0,0,0
 2023-06-24 15:05:28.101,-70874.96768,37311.34234,9853.140694,33592.88378,26845.94266,-56153.70645,20627.88852,-73210.97084,-0.024,0.092,-0.99,192,0,0,0,0,0,0,0,0,0,0
 2023-06-24 15:05:28.101,-70844.61401,35670.32196,8207.046474,32008.7933,25210.39846,-54879.38879,18985.92937,-72383.75513,-0.024,0.092,-0.99,192,0,0,0,0,0,0,0,0,0,0
 2023-06-24 15:05:28.101,-71118.24407,35444.81521,8013.726236,31692.73963,25009.79155,-55012.29227,18784.04841,-72488.76363,-0.024,0.092,-0.99,192,0,0,0,0,0,0,0,0,0,0
 2023-06-24 15:05:28.101,-71325.48944,36697.49638,9289.899086,32848.81656,26275.61555,-56240.02889,20050.98999,-73288.93373,-0.024,0.092,-0.99,192,0,0,0,0,0,0,0,0,0,0
 2023-06-24 15:05:28.101,-71185.20989,37817.72111,10395.75164,33986.11802,27381.64692,-56933.78233,21157.49075,-73734.24753,-0.024,0.092,-0.99,192,0,0,0,0,0,0,0,0,0,0
 2023-06-24 15:05:28.101,-70888.24462,37297.59601,9840.422552,33577.43872,26838.34306,-56165.39641,20615.93033,-73231.82502,-0.028,0.094,-0.988,192,255,32,2,240,225,32,0,0,0,0
 2023-06-24 15:05:28.101,-70842.69176,35726.62601,8259.170742,32066.68431,25265.22729,-54877.37714,19042.76985,-72392.80759,-0.028,0.094,-0.988,192,0,0,0,0,0,0,0,0,0,0
 2023-06-24 15:05:28.101,-71120.56865,35430.82302,7992.492079,31691.51028,24997.92278,-54999.28355,18772.51491,-72489.16596,-0.028,0.094,-0.988,192,0,0,0,0,0,0,0,0,0,0
 2023-06-24 15:05:28.101,-71343.32613,36604.51312,9185.65055,32768.0597,26186.70031,-56234.28449,19964.13111,-73294.07463,-0.028,0.094,-0.988,192,0,0,0,0,0,0,0,0,0,0
 2023-06-24 15:05:28.101,-71208.52276,37737.52305,10305.98704,33915.4865,27303.59463,-56946.36636,21065.80389,-73749.62553,-0.028,0.094,-0.988,192,0,0,0,0,0,0,0,0,0,0
 2023-06-24 15:05:28.101,-70908.60705,37259.15101,9797.395444,33538.59139,26795.13714,-56191.30208,20551.71377,-73253.95325,-0.028,0.094,-0.988,192,0,0,0,0,0,0,0,0,0,0
 2023-06-24 15:05:28.101,-70860.37199,35691.01968,8221.843329,32024.64068,25224.30125,-54896.42082,18992.52313,-72412.00774,-0.028,0.094,-0.988,192,0,0,0,0,0,0,0,0,0,0
 2023-06-24 15:05:28.101,-71123.56378,35472.2408,8029.350105,31727.67541,25036.74776,-54989.0241,18815.00558,-72488.13778,-0.028,0.094,-0.988,192,0,0,0,0,0,0,0,0,0,0
 2023-06-24 15:05:28.101,-71342.09679,36668.23794,9244.323879,32842.82629,26251.63212,-56210.65869,20003.67135,-73284.59749,-0.028,0.094,-0.988,192,0,0,0,0,0,0,0,0,0,0
 2023-06-24 15:05:28.101,-71209.75211,37808.26632,10378.25023,33987.90616,27374.62847,-56936.77746,21134.51316,-73749.782,-0.028,0.094,-0.988,192,0,0,0,0,0,0,0,0,0,0
 2023-06-24 15:05:28.101,-70901.56626,37389.01465,9928.287259,33663.6047,26925.15724,-56191.92793,20695.72606,-73257.28366,-0.026,0.1,-0.986,192,255,48,3,32,225,48,0,0,0,0
 2023-06-24 15:05:28.101,-70844.27873,35829.37698,8360.848827,32162.90857,25360.44572,-54887.27896,19132.78033,-72404.67637,-0.026,0.1,-0.986,192,0,0,0,0,0,0,0,0,0,0
 2023-06-24 15:05:28.580,-71118.15466,35502.92975,8063.436516,31760.13014,25060.90999,-54969.82395,18830.18241,-72477.02896,-0.026,0.1,-0.986,192,0,0,0,0,0,0,0,0,0,0
 2023-06-24 15:05:28.580,-71344.51078,36653.19522,9236.65723,32810.23744,26224.92179,-56187.23407,19998.57515,-73273.35456,-0.026,0.1,-0.986,192,0,0,0,0,0,0,0,0,0,0
 2023-06-24 15:05:28.581,-71215.65297,37807.05932,10376.5962,33977.02086,27370.13577,-56924.79693,21141.19633,-73747.79269,-0.026,0.1,-0.986,192,0,0,0,0,0,0,0,0,0,0
 2023-06-24 15:05:28.581,-70908.04826,37416.97668,9958.328004,33690.73971,26957.88019,-56197.24765,20719.86594,-73271.07468,-0.026,0.1,-0.986,192,0,0,0,0,0,0,0,0,0,0
 2023-06-24 15:05:28.581,-70852.95121,35819.76573,8356.847865,32146.03301,25353.91901,-54894.00684,19123.37024,-72424.65883,-0.026,0.1,-0.986,192,0,0,0,0,0,0,0,0,0,0
 2023-06-24 15:05:28.581,-71125.86601,35458.82976,8023.181024,31708.38585,25022.10737,-54961.15148,18790.48571,-72489.14361,-0.026,0.1,-0.986,192,0,0,0,0,0,0,0,0,0,0
 2023-06-24 15:05:28.581,-71344.08609,36659.90074,9241.842835,32812.22675,26238.77987,-56164.25647,20003.89487,-73275.16505,-0.026,0.1,-0.986,192,0,0,0,0,0,0,0,0,0,0
 2023-06-24 15:05:28.581,-71214.69184,37837.12242,10406.23461,33993.31528,27395.77322,-56910.87179,21149.31001,-73755.97343,-0.026,0.1,-0.986,192,0,0,0,0,0,0,0,0,0,0
 2023-06-24 15:05:28.581,-70913.0774,37432.46644,9966.620501,33687.90104,26961.18825,-56201.8074,20719.26245,-73291.43712,-0.018,0.098,-0.988,192,255,112,3,16,225,32,0,0,0,0
 2023-06-24 15:05:28.581,-70854.15821,35852.98042,8379.311368,32178.13011,25381.07638,-54896.1079,19148.65007,-72439.92507,-0.018,0.098,-0.988,192,0,0,0,0,0,0,0,0,0,0
 2023-06-24 15:05:28.581,-71118.98167,35515.98317,8067.929216,31762.2312,25064.57568,-54944.96881,18828.68485,-72490.52942,-0.018,0.098,-0.988,192,0,0,0,0,0,0,0,0,0,0
 2023-06-24 15:05:28.581,-71343.23673,36666.27099,9241.172283,32808.29284,26230.95676,-56145.48101,19998.06106,-73274.24863,-0.018,0.098,-0.988,192,0,0,0,0,0,0,0,0,0,0
 2023-06-24 15:05:28.581,-71227.03001,37797.78335,10364.66037,33942.48741,27354.08722,-56913.88928,21113.8825,-73768.4457,-0.018,0.098,-0.988,192,0,0,0,0,0,0,0,0,0,0
 2023-06-24 15:05:28.581,-70921.57107,37449.2526,9987.49703,33701.20033,26974.97928,-56218.59356,20727.06321,-73310.12318,-0.018,0.098,-0.988,192,0,0,0,0,0,0,0,0,0,0
 2023-06-24 15:05:28.581,-70861.13195,35846.34195,8375.288054,32173.88328,25370.99574,-54909.78717,19133.92027,-72456.57712,-0.018,0.098,-0.988,192,0,0,0,0,0,0,0,0,0,0
 2023-06-24 15:05:28.581,-71121.99916,35510.46229,8064.867027,31771.19425,25069.78364,-54935.51403,18835.72565,-72490.88704,-0.018,0.098,-0.988,192,0,0,0,0,0,0,0,0,0,0
 2023-06-24 15:05:28.581,-71353.92086,36622.34981,9197.921657,32781.82838,26195.43984,-56133.09814,19955.79391,-73271.87935,-0.018,0.098,-0.988,192,0,0,0,0,0,0,0,0,0,0
 2023-06-24 15:05:28.581,-71232.84146,37825.3207,10392.82356,33979.77012,27379.97054,-56906.04382,21136.77068,-73766.70227,-0.018,0.098,-0.988,192,0,0,0,0,0,0,0,0,0,0
 2023-06-24 15:05:28.581,-70932.81399,37445.09517,9982.713757,33703.36845,26974.10756,-56232.76457,20737.16619,-73325.25531,-0.016,0.1,-0.988,192,255,128,3,32,225,32,0,0,0,0
 2023-06-24 15:05:28.581,-70863.56829,35878.48376,8400.947857,32204.03578,25402.44465,-54916.24682,19165.0786,-72466.23307,-0.016,0.1,-0.988,192,0,0,0,0,0,0,0,0,0,0
 2023-06-24 15:05:28.581,-71128.59292,35478.5887,8030.825321,31721.48397,25029.28228,-54929.412,18800.92398,-72494.23981,-0.016,0.1,-0.988,192,0,0,0,0,0,0,0,0,0,0
 2023-06-24 15:05:28.581,-71354.30084,36634.06213,9212.271477,32769.51257,26200.78191,-56115.41791,19974.2341,-73267.54311,-0.016,0.1,-0.988,192,0,0,0,0,0,0,0,0,0,0
 2023-06-24 15:05:28.581,-71238.78702,37810.6356,10374.24926,33981.33474,27371.54393,-56906.49085,21122.48792,-73776.98407,-0.016,0.1,-0.988,192,0,0,0,0,0,0,0,0,0,0
 2023-06-24 15:05:28.581,-70936.03265,37465.47997,9999.969304,33737.76778,27000.37086,-56246.645,20750.80076,-73343.89667,-0.016,0.1,-0.988,192,0,0,0,0,0,0,0,0,0,0
 2023-06-24 15:05:28.581,-70862.33894,35897.41569,8424.931279,32235.39528,25425.46695,-54924.98635,19184.97165,-72482.6169,-0.016,0.1,-0.988,192,0,0,0,0,0,0,0,0,0,0
 2023-06-24 15:05:28.581,-71122.69206,35496.38069,8052.014774,31757.82791,25052.37163,-54917.65498,18815.51967,-72497.68198,-0.016,0.1,-0.988,192,0,0,0,0,0,0,0,0,0,0
 2023-06-24 15:05:28.581,-71358.32415,36596.13122,9173.111221,32753.59812,26170.96468,-56102.36449,19928.72595,-73272.28168,-0.016,0.1,-0.988,192,0,0,0,0,0,0,0,0,0,0
 2023-06-24 15:05:28.581,-71245.11257,37817.09526,10382.51941,33971.58938,27376.95305,-56905.75324,21130.53455,-73789.16577,-0.016,0.1,-0.988,192,0,0,0,0,0,0,0,0,0,0
 2023-06-24 15:05:28.581,-70941.03944,37502.60621,10038.34725,33754.44219,27028.13173,-56258.98317,20785.15539,-73363.90148,-0.018,0.098,-0.986,192,255,112,3,16,225,48,0,0,0,0
 2023-06-24 15:05:28.581,-70875.45942,35851.12522,8374.863371,32175.4479,25370.74988,-54943.40419,19139.32939,-72506.19799,-0.018,0.098,-0.986,192,0,0,0,0,0,0,0,0,0,0
 2023-06-24 15:05:28.581,-71131.16337,35442.51298,7992.045044,31688.5822,24992.29014,-54917.14089,18763.48481,-72506.91325,-0.018,0.098,-0.986,192,0,0,0,0,0,0,0,0,0,0
 2023-06-24 15:05:28.581,-71357.36303,36595.75124,9167.925616,32746.62438,26163.47684,-56084.66191,19918.69002,-73267.02902,-0.018,0.098,-0.986,192,0,0,0,0,0,0,0,0,0,0
 2023-06-24 15:05:28.581,-71247.34774,37821.78912,10385.6263,33973.37752,27375.54489,-56898.64539,21119.20221,-73787.48939,-0.018,0.098,-0.986,192,0,0,0,0,0,0,0,0,0,0
 2023-06-24 15:05:28.581,-70948.54962,37488.18934,10020.19763,33738.79596,27016.82174,-56272.08129,20767.07283,-73373.8033,-0.018,0.098,-0.986,192,0,0,0,0,0,0,0,0,0,0
 2023-06-24 15:05:28.581,-70871.03377,35896.63337,8419.879785,32222.45362,25426.24926,-54949.12624,19176.99208,-72509.95308,-0.018,0.098,-0.986,192,0,0,0,0,0,0,0,0,0,0
 2023-06-24 15:05:28.581,-71126.60362,35456.95221,8010.172309,31708.25174,25011.40088,-54907.01555,18766.94933,-72501.8394,-0.018,0.098,-0.986,192,0,0,0,0,0,0,0,0,0,0
 2023-06-24 15:05:28.581,-71362.68274,36529.74654,9109.207584,32686.0735,26102.27777,-56074.00013,19863.61532,-73264.36916,-0.018,0.098,-0.986,192,0,0,0,0,0,0,0,0,0,0
 2023-06-24 15:05:28.581,-71261.80932,37733.58914,10302.36605,33891.57014,27297.31379,-56905.52973,21067.77085,-73799.62639,-0.018,0.098,-0.986,192,0,0,0,0,0,0,0,0,0,0
 2023-06-24 15:05:28.581,-70955.70218,37469.92796,10007.07716,33735.37615,27007.81399,-56289.78387,20757.64039,-73394.21045,-0.024,0.094,-0.986,192,255,64,2,240,225,48,0,0,0,0
 2023-06-24 15:05:28.581,-70870.02794,35883.19998,8405.418206,32223.12417,25414.93927,-54958.96101,19165.21271,-72526.18045,-0.024,0.094,-0.986,192,0,0,0,0,0,0,0,0,0,0
 2023-06-24 15:05:28.581,-71123.40732,35435.53924,7982.657311,31699.55691,24994.3018,-54898.32072,18756.98045,-72505.54979,-0.024,0.094,-0.986,192,0,0,0,0,0,0,0,0,0,0
 2023-06-24 15:05:28.581,-71369.09769,36477.44345,9047.293251,32635.75973,26053.52861,-56063.02542,19817.81659,-73267.31959,-0.024,0.094,-0.986,192,0,0,0,0,0,0,0,0,0,0
 2023-06-24 15:05:28.581,-71283.22229,37655.67096,10216.58006,33807.1923,27217.80863,-56912.81639,20981.11313,-73813.48447,-0.024,0.094,-0.986,192,0,0,0,0,0,0,0,0,0,0
 2023-06-24 15:05:28.581,-70979.01505,37431.55002,9965.704079,33687.52106,26971.24654,-56312.18032,20720.71531,-73416.78571,-0.024,0.094,-0.986,192,0,0,0,0,0,0,0,0,0,0
 2023-06-24 15:05:28.582,-70884.08719,35911.31847,8433.40259,32237.85397,25439.88382,-54972.48381,19183.0047,-72540.86555,-0.024,0.094,-0.986,192,0,0,0,0,0,0,0,0,0,0
 2023-06-24 15:05:28.582,-71140.417,35412.89692,7963.323052,31674.23238,24970.54189,-54898.94657,18718.96013,-72510.57893,-0.024,0.094,-0.986,192,0,0,0,0,0,0,0,0,0,0
 2023-06-24 15:05:28.582,-71383.00048,36455.82932,9030.171815,32616.55958,26035.64722,-56052.40834,19799.26465,-73263.07276,-0.024,0.094,-0.986,192,0,0,0,0,0,0,0,0,0,0
 2023-06-24 15:05:28.582,-71292.63238,37686.04698,10252.05228,33846.53137,27256.74537,-56908.99425,21013.94785,-73814.44559,-0.024,0.094,-0.986,192,0,0,0,0,0,0,0,0,0,0
 2023-06-24 15:05:28.582,-70992.85078,37456.91925,9989.888667,33721.49571,27002.60603,-56327.60302,20751.44896,-73431.44845,-0.022,0.098,-0.986,192,255,80,3,16,225,48,0,0,0,0
 2023-06-24 15:05:28.582,-70903.22028,35874.14752,8394.644665,32208.08145,25409.41839,-54993.24858,19168.99016,-72560.1104,-0.022,0.098,-0.986,192,0,0,0,0,0,0,0,0,0,0
 2023-06-24 15:05:28.582,-71160.22064,35353.03895,7898.950028,31614.73204,24911.60034,-54904.84743,18668.37813,-72522.85004,-0.022,0.098,-0.986,192,0,0,0,0,0,0,0,0,0,0
 2023-06-24 15:05:28.582,-71409.62141,36374.2678,8945.414,32531.71236,25949.34713,-56054.84468,19692.13273,-73273.64514,-0.022,0.098,-0.986,192,0,0,0,0,0,0,0,0,0,0
 2023-06-24 15:05:28.582,-71320.86263,37640.8741,10204.86775,33777.46448,27197.82617,-56920.52775,20953.7993,-73829.13069,-0.022,0.098,-0.986,192,0,0,0,0,0,0,0,0,0,0
 2023-06-24 15:05:28.582,-71018.7341,37450.61606,9986.558257,33683.27423,26984.54583,-56353.01696,20744.65403,-73454.20253,-0.022,0.098,-0.986,192,0,0,0,0,0,0,0,0,0,0
 2023-06-24 15:05:28.582,-70918.33006,35912.14548,8434.341363,32235.08236,25445.69527,-55011.82288,19187.56445,-72576.94126,-0.022,0.098,-0.986,192,0,0,0,0,0,0,0,0,0,0
 2023-06-24 15:05:28.582,-71166.7697,35399.46352,7947.363907,31648.08084,24949.5536,-54899.48301,18694.68614,-72522.55947,-0.022,0.098,-0.986,192,0,0,0,0,0,0,0,0,0,0
 2023-06-24 15:05:28.582,-71411.11897,36445.23459,9015.978457,32589.71513,26011.64144,-56035.51043,19754.31529,-73263.05041,-0.022,0.098,-0.986,192,0,0,0,0,0,0,0,0,0,0
 2023-06-24 15:05:28.582,-71332.21732,37660.25307,10223.30793,33805.31476,27224.15653,-56917.01852,20967.05389,-73829.68948,-0.022,0.098,-0.986,192,0,0,0,0,0,0,0,0,0,0
 2023-06-24 15:05:28.582,-71030.84875,37497.26415,10032.37933,33737.9466,27034.74784,-56366.56211,20772.83958,-73465.62427,-0.022,0.098,-0.99,192,255,80,3,16,225,16,0,0,0,0
 2023-06-24 15:05:28.582,-70929.64005,35941.85095,8457.631881,32266.46421,25465.34246,-55024.71984,19216.26409,-72589.6594,-0.022,0.098,-0.99,192,0,0,0,0,0,0,0,0,0,0
 2023-06-24 15:05:28.582,-71185.07578,35368.64047,7909.500052,31628.63483,24925.1902,-54899.57242,18684.67256,-72528.1027,-0.022,0.098,-0.99,192,0,0,0,0,0,0,0,0,0,0
 2023-06-24 15:05:28.582,-71428.26276,36423.19577,8993.537306,32572.30312,25999.28093,-56025.5192,19758.69623,-73260.47996,-0.022,0.098,-0.99,192,0,0,0,0,0,0,0,0,0,0
 2023-06-24 15:05:28.582,-71344.04139,37708.75635,10272.99586,33840.69757,27268.86001,-56912.39171,21026.1519,-73827.4096,-0.022,0.098,-0.99,192,0,0,0,0,0,0,0,0,0,0
 2023-06-24 15:05:28.582,-71046.18204,37535.46328,10067.35981,33769.57432,27073.88575,-56378.87792,20829.54595,-73470.87693,-0.022,0.098,-0.99,192,0,0,0,0,0,0,0,0,0,0
 2023-06-24 15:05:28.582,-70945.84506,35971.95875,8489.818393,32290.11235,25503.0275,-55039.06966,19256.6537,-72592.8557,-0.022,0.098,-0.99,192,0,0,0,0,0,0,0,0,0,0
 2023-06-24 15:05:28.582,-71196.94456,35403.37508,7948.012107,31658.4744,24955.14154,-54894.87855,18704.92324,-72517.28445,-0.022,0.098,-0.99,192,0,0,0,0,0,0,0,0,0,0
 2023-06-24 15:05:28.582,-71444.15485,36432.02471,9003.617943,32597.58295,26010.85913,-56013.4269,19759.43384,-73247.82887,-0.022,0.098,-0.99,192,0,0,0,0,0,0,0,0,0,0
 2023-06-24 15:05:28.582,-71368.76242,37674.55818,10242.0834,33833.85793,27245.92712,-56916.19151,20993.94303,-73827.70018,-0.022,0.098,-0.99,192,0,0,0,0,0,0,0,0,0,0
 2023-06-24 15:05:28.582,-71068.57849,37527.72957,10064.29762,33777.26332,27070.48828,-56397.40752,20818.88417,-73480.89051,-0.022,0.098,-0.988,192,255,80,3,16,225,32,0,0,0,0
 2023-06-24 15:05:28.582,-70966.63218,35944.60022,8464.069183,32270.15224,25477.14418,-55061.71197,19238.95112,-72603.76335,-0.022,0.098,-0.988,192,0,0,0,0,0,0,0,0,0,0
 2023-06-24 15:05:28.582,-71207.20401,35382.05151,7931.8965,31645.06336,24939.74119,-54896.35377,18699.55882,-72512.7247,-0.022,0.098,-0.988,192,0,0,0,0,0,0,0,0,0,0
 2023-06-24 15:05:28.582,-71454.92839,36386.20363,8963.60832,32559.8085,25969.70957,-56007.01195,19724.31925,-73236.38478,-0.022,0.098,-0.988,192,0,0,0,0,0,0,0,0,0,0
 2023-06-24 15:05:28.582,-71380.1171,37670.9819,10239.20002,33824.06787,27238.41694,-56917.91259,20992.1549,-73821.68756,-0.022,0.098,-0.988,192,0,0,0,0,0,0,0,0,0,0
 2023-06-24 15:05:28.582,-71077.11686,37576.90341,10113.47146,33819.15049,27119.21509,-56410.63975,20881.51376,-73481.85164,-0.022,0.098,-0.988,192,0,0,0,0,0,0,0,0,0,0
 2023-06-24 15:05:28.582,-70968.1074,36024.48535,8548.268205,32352.11609,25561.74553,-55066.69641,19325.60883,-72601.88581,-0.022,0.098,-0.988,192,0,0,0,0,0,0,0,0,0,0
 2023-06-24 15:05:28.582,-71205.08059,35479.2369,8032.166425,31735.2303,25037.8877,-54881.44516,18806.73543,-72498.41958,-0.022,0.098,-0.988,192,0,0,0,0,0,0,0,0,0,0
 2023-06-24 15:05:28.582,-71445.67477,36524.06919,9100.758624,32675.32232,26097.5392,-55974.19959,19856.61922,-73210.72497,-0.022,0.098,-0.988,192,0,0,0,0,0,0,0,0,0,0
 2023-06-24 15:05:28.582,-71378.55248,37763.27226,10329.76929,33924.4272,27329.03091,-56898.91361,21078.61144,-73806.22015,-0.022,0.098,-0.988,192,0,0,0,0,0,0,0,0,0,0
 2023-06-24 15:05:28.582,-71088.65036,37597.17644,10133.1857,33855.31561,27143.53378,-56416.76413,20891.81791,-73486.79137,-0.026,0.1,-0.992,192,255,48,3,32,225,0,0,0,0,0
 2023-06-24 15:05:28.582,-70972.6001,36056.85068,8578.130135,32392.86332,25594.24497,-55070.54091,19348.9664,-72606.15499,-0.026,0.1,-0.992,192,0,0,0,0,0,0,0,0,0,0
 2023-06-24 15:05:28.582,-71208.85804,35450.33609,7997.521221,31726.24489,25018.1064,-54869.28581,18777.65581,-72493.16692,-0.026,0.1,-0.992,192,0,0,0,0,0,0,0,0,0,0
 2023-06-24 15:05:28.582,-71456.47066,36448.565,9023.712161,32611.44103,26032.11564,-55958.28515,19798.90702,-73204.19827,-0.026,0.1,-0.992,192,0,0,0,0,0,0,0,0,0,0
 2023-06-24 15:05:28.582,-71392.81289,37722.59208,10292.91127,33868.88312,27294.45276,-56892.87864,21056.19264,-73808.05299,-0.026,0.1,-0.992,192,0,0,0,0,0,0,0,0,0,0
 2023-06-24 15:05:28.582,-71097.68046,37622.38921,10159.00197,33866.49148,27173.10514,-56422.64264,20934.59915,-73495.82148,-0.026,0.1,-0.992,192,0,0,0,0,0,0,0,0,0,0
 2023-06-24 15:05:28.582,-70977.20456,36084.81271,8602.717054,32412.39875,25623.16813,-55076.73235,19388.90897,-72613.84399,-0.026,0.1,-0.992,192,0,0,0,0,0,0,0,0,0,0
 2023-06-24 15:05:28.582,-71217.97755,35419.75891,7966.049965,31691.1303,24980.42136,-54862.71439,18744.70934,-72493.12222,-0.026,0.1,-0.992,192,0,0,0,0,0,0,0,0,0,0
 2023-06-24 15:05:28.582,-71468.71942,36399.68174,8973.443088,32565.93288,25979.63375,-55944.15885,19738.98199,-73197.96213,-0.026,0.1,-0.992,192,0,0,0,0,0,0,0,0,0,0
 2023-06-24 15:05:28.582,-71402.96059,37707.70582,10279.2767,33861.39528,27285.73558,-56887.51422,21037.75245,-73804.56612,-0.026,0.1,-0.992,192,0,0,0,0,0,0,0,0,0,0
 2023-06-24 15:05:28.582,-71104.74361,37647.57963,10193.26719,33888.575,27196.46271,-56431.02454,20952.88288,-73498.88366,-0.022,0.098,-0.988,192,255,80,3,16,225,32,0,0,0,0
 2023-06-24 15:05:28.582,-70977.56219,36145.45299,8674.622616,32468.72514,25682.82493,-55083.2367,19444.25189,-72615.07334,-0.022,0.098,-0.988,192,0,0,0,0,0,0,0,0,0,0
 2023-06-24 15:05:28.582,-71221.39737,35437.10386,7991.933285,31702.30618,24993.96652,-54858.08758,18756.48871,-72487.42252,-0.022,0.098,-0.988,192,0,0,0,0,0,0,0,0,0,0
 2023-06-24 15:05:28.582,-71485.43852,36342.68479,8922.279945,32512.35575,25924.76021,-55939.42028,19683.68377,-73192.86593,-0.022,0.098,-0.988,192,0,0,0,0,0,0,0,0,0,0
 2023-06-24 15:05:28.582,-71423.70301,37663.87405,10237.27777,33809.87451,27235.75708,-56892.05162,20990.38911,-73805.25903,-0.022,0.098,-0.988,192,0,0,0,0,0,0,0,0,0,0
 2023-06-24 15:05:28.582,-71126.64832,37619.46113,10159.62781,33855.56148,27163.04686,-56451.94578,20927.29013,-73511.28888,-0.022,0.098,-0.988,192,0,0,0,0,0,0,0,0,0,0
 2023-06-24 15:05:28.582,-70994.01307,36122.87773,8643.598395,32440.33843,25654.48292,-55102.90624,19420.73785,-72627.65737,-0.022,0.098,-0.988,192,0,0,0,0,0,0,0,0,0,0
 2023-06-24 15:05:28.583,-71225.33127,35450.44785,7997.163593,31712.63268,25010.01507,-54851.53852,18775.26418,-72481.9687,-0.022,0.098,-0.988,192,0,0,0,0,0,0,0,0,0,0
 2023-06-24 15:05:28.583,-71483.98566,36387.76826,8963.451858,32553.59471,25972.41413,-55918.96843,19727.02381,-73176.61621,-0.022,0.098,-0.988,192,0,0,0,0,0,0,0,0,0,0
 2023-06-24 15:05:28.583,-71430.63205,37687.09751,10260.09891,33837.16599,27262.73564,-56885.27905,21008.47167,-73798.91113,-0.022,0.098,-0.988,192,0,0,0,0,0,0,0,0,0,0
 2023-06-24 15:05:28.583,-71139.7688,37642.19286,10187.90277,33886.22807,27195.05455,-56465.53564,20940.50001,-73519.96136,-0.022,0.098,-0.99,192,255,80,3,16,225,16,0,0,0,0
 2023-06-24 15:05:28.583,-71004.09371,36160.69688,8690.827631,32491.9039,25705.80252,-55119.53594,19455.58422,-72638.40856,-0.022,0.098,-0.99,192,0,0,0,0,0,0,0,0,0,0
 2023-06-24 15:05:28.583,-71226.76179,35507.04247,8060.709603,31780.13495,25078.50082,-54842.91075,18829.06483,-72475.95608,-0.022,0.098,-0.99,192,0,0,0,0,0,0,0,0,0,0
 2023-06-24 15:05:28.583,-71493.84278,36368.36694,8947.984451,32536.45093,25954.28687,-55903.52337,19700.13466,-73168.68134,-0.022,0.098,-0.99,192,0,0,0,0,0,0,0,0,0,0
 2023-06-24 15:05:28.583,-71445.49596,37644.80801,10219.91047,33790.11557,27225.81055,-56881.30044,20973.67,-73799.17935,-0.022,0.098,-0.99,192,0,0,0,0,0,0,0,0,0,0
 2023-06-24 15:05:28.583,-71144.70853,37682.20248,10225.43135,33913.4525,27236.78526,-56468.68723,20988.24334,-73520.85543,-0.022,0.098,-0.99,192,0,0,0,0,0,0,0,0,0,0
 2023-06-24 15:05:28.583,-71006.35123,36191.96697,8715.861585,32517.18372,25733.29517,-55124.1404,19481.51225,-72638.945,-0.022,0.098,-0.99,192,0,0,0,0,0,0,0,0,0,0
 2023-06-24 15:05:28.583,-71239.0776,35430.48774,7979.461012,31699.64632,24992.02192,-54843.89422,18751.75014,-72475.19612,-0.022,0.098,-0.99,192,0,0,0,0,0,0,0,0,0,0
 2023-06-24 15:05:28.583,-71508.97491,36295.34379,8872.614369,32458.37628,25874.35703,-55897.91309,19637.68388,-73162.37815,-0.022,0.098,-0.99,192,0,0,0,0,0,0,0,0,0,0
 2023-06-24 15:05:28.583,-71465.27725,37596.17062,10170.08843,33745.0768,27173.30631,-56888.90003,20925.05496,-73798.77702,-0.022,0.098,-0.99,192,0,0,0,0,0,0,0,0,0,0
 2023-06-24 15:05:28.583,-71171.9106,37611.45921,10157.05736,33846.08434,27166.31021,-56499.19736,20927.55835,-73535.24995,-0.022,0.096,-0.99,192,255,80,3,0,225,16,0,0,0,0
 2023-06-24 15:05:28.583,-71030.11114,36136.08761,8663.066764,32463.42778,25677.14759,-55156.66218,19436.98757,-72654.2783,-0.022,0.096,-0.99,192,0,0,0,0,0,0,0,0,0,0
 2023-06-24 15:05:28.583,-71261.5858,35364.17012,7913.411607,31653.91465,24932.45452,-54856.05357,18682.57149,-72479.01827,-0.022,0.096,-0.99,192,0,0,0,0,0,0,0,0,0,0
 2023-06-24 15:05:28.583,-71519.63669,36291.56635,8869.127496,32471.65322,25878.93914,-55884.30087,19632.1183,-73150.35291,-0.022,0.096,-0.99,192,0,0,0,0,0,0,0,0,0,0
 2023-06-24 15:05:28.583,-71470.3511,37648.74192,10221.63155,33800.37502,27228.80569,-56874.61726,20985.89641,-73788.13759,-0.022,0.096,-0.99,192,0,0,0,0,0,0,0,0,0,0
 2023-06-24 15:05:28.583,-71179.5996,37660.7001,10204.55482,33895.32523,27211.46073,-56500.51612,20972.77593,-73537.7757,-0.022,0.096,-0.99,192,0,0,0,0,0,0,0,0,0,0
 2023-06-24 15:05:28.583,-71044.57272,36132.13135,8657.858808,32457.9516,25674.44303,-55168.82153,19433.63481,-72665.05184,-0.022,0.096,-0.99,192,0,0,0,0,0,0,0,0,0,0
 2023-06-24 15:05:28.583,-71262.50222,35420.87649,7965.580579,31698.14875,24992.84893,-54842.55312,18740.70838,-72470.07757,-0.022,0.096,-0.99,192,0,0,0,0,0,0,0,0,0,0
 2023-06-24 15:05:28.583,-71530.54434,36271.60624,8841.992479,32446.21693,25860.45424,-55868.07351,19597.87543,-73140.20522,-0.022,0.096,-0.99,192,0,0,0,0,0,0,0,0,0,0
 2023-06-24 15:05:28.583,-71488.29955,37601.64679,10170.51311,33744.11568,27177.68725,-56871.59978,20915.91309,-73787.17646,-0.022,0.096,-0.99,192,0,0,0,0,0,0,0,0,0,0
 2023-06-24 15:05:28.583,-71194.82114,37654.62043,10194.13891,33881.42245,27203.99525,-56513.70365,20943.76337,-73546.29171,-0.018,0.094,-0.984,192,255,112,2,240,225,64,0,0,0,0
 2023-06-24 15:05:28.583,-71042.29284,36225.94163,8745.768219,32542.10592,25765.057,-55173.29188,19517.18563,-72666.25883,-0.018,0.094,-0.984,192,0,0,0,0,0,0,0,0,0,0
 2023-06-24 15:05:28.583,-71260.80349,35457.30984,7997.744739,31728.50242,25023.29201,-54835.06529,18782.14851,-72463.21559,-0.018,0.094,-0.984,192,0,0,0,0,0,0,0,0,0,0
 2023-06-24 15:05:29.060,-71521.53659,36349.72559,8915.462663,32518.72599,25939.40061,-55843.44188,19700.46993,-73120.0216,-0.018,0.094,-0.984,192,0,0,0,0,0,0,0,0,0,0
 2023-06-24 15:05:29.060,-71484.81268,37676.74865,10241.77048,33816.20006,27256.70067,-56858.21108,21004.40365,-73775.30769,-0.018,0.094,-0.984,192,0,0,0,0,0,0,0,0,0,0
 2023-06-24 15:05:29.060,-71203.15834,37676.43573,10213.3167,33897.18043,27226.72698,-56526.80177,20964.79636,-73553.82425,-0.018,0.094,-0.984,192,0,0,0,0,0,0,0,0,0,0
 2023-06-24 15:05:29.060,-71057.84965,36201.33235,8720.846024,32513.92037,25739.57601,-55198.41524,19478.53946,-72680.98863,-0.018,0.094,-0.984,192,0,0,0,0,0,0,0,0,0,0
 2023-06-24 15:05:29.060,-71263.19513,35484.4225,8028.456036,31749.53541,25049.4659,-54830.81845,18794.12905,-72459.57225,-0.018,0.094,-0.984,192,0,0,0,0,0,0,0,0,0,0
 2023-06-24 15:05:29.060,-71527.63862,36327.01621,8897.49186,32493.73674,25912.24324,-55828.15329,19663.12017,-73111.19266,-0.018,0.094,-0.984,192,0,0,0,0,0,0,0,0,0,0
 2023-06-24 15:05:29.060,-71502.93994,37619.41643,10189.6015,33759.7172,27197.96028,-56858.27814,20953.44167,-73775.55356,-0.018,0.094,-0.984,192,0,0,0,0,0,0,0,0,0,0
 2023-06-24 15:05:29.060,-71217.32935,37689.82442,10231.37691,33913.11722,27241.41207,-56539.49756,20998.54749,-73557.82521,-0.018,0.094,-0.984,192,0,0,0,0,0,0,0,0,0,0
 2023-06-24 15:05:29.060,-71061.7165,36257.72581,8779.497001,32578.20399,25799.90337,-55207.89238,19556.90468,-72681.63683,-0.012,0.096,-0.986,192,255,160,3,0,225,48,0,0,0,0
 2023-06-24 15:05:29.060,-71262.07754,35525.75088,8068.800934,31802.66551,25088.06736,-54824.06823,18838.51961,-72449.961,-0.012,0.096,-0.986,192,0,0,0,0,0,0,0,0,0,0
 2023-06-24 15:05:29.060,-71527.4598,36348.69741,8917.921355,32521.76583,25927.95651,-55809.75781,19670.63036,-73095.21116,-0.012,0.096,-0.986,192,0,0,0,0,0,0,0,0,0,0
 2023-06-24 15:05:29.060,-71503.94577,37650.26184,10222.48092,33789.89205,27221.83194,-56844.26359,20971.05485,-73764.04241,-0.012,0.096,-0.986,192,0,0,0,0,0,0,0,0,0,0
 2023-06-24 15:05:29.060,-71218.26812,37740.76405,10288.53032,33955.16085,27290.72002,-56542.02331,21050.85058,-73559.09926,-0.012,0.096,-0.986,192,0,0,0,0,0,0,0,0,0,0
 2023-06-24 15:05:29.060,-71057.69319,36314.18631,8837.432723,32634.7986,25857.30265,-55216.02842,19610.54887,-72686.12953,-0.012,0.096,-0.986,192,0,0,0,0,0,0,0,0,0,0
 2023-06-24 15:05:29.060,-71261.25053,35504.852,8047.030335,31775.77636,25069.44836,-54816.6251,18821.42053,-72445.73652,-0.012,0.096,-0.986,192,0,0,0,0,0,0,0,0,0,0
 2023-06-24 15:05:29.060,-71524.50937,36337.87916,8906.030226,32501.85043,25921.83213,-55788.45659,19663.83543,-73081.33073,-0.012,0.096,-0.986,192,0,0,0,0,0,0,0,0,0,0
 2023-06-24 15:05:29.060,-71503.99047,37645.85854,10214.83662,33783.79003,27220.02145,-56836.14991,20950.89358,-73757.67216,-0.012,0.096,-0.986,192,0,0,0,0,0,0,0,0,0,0
 2023-06-24 15:05:29.060,-71222.80553,37740.07115,10284.55171,33952.43394,27290.60826,-56553.15447,21030.26462,-73564.97777,-0.012,0.096,-0.986,192,0,0,0,0,0,0,0,0,0,0
 2023-06-24 15:05:29.060,-71064.37636,36313.20284,8834.884624,32618.79475,25852.92171,-55233.32867,19600.26706,-72695.94195,-0.02,0.092,-0.988,192,255,96,2,224,225,32,0,0,0,0
 2023-06-24 15:05:29.060,-71268.35838,35474.07365,8016.251983,31743.88042,25033.4397,-54821.74365,18772.53726,-72446.00474,-0.02,0.092,-0.988,192,0,0,0,0,0,0,0,0,0,0
 2023-06-24 15:05:29.060,-71546.0341,36201.06413,8769.505771,32372.85851,25783.6313,-55794.60332,19522.03596,-73083.85647,-0.02,0.092,-0.988,192,0,0,0,0,0,0,0,0,0,0
 2023-06-24 15:05:29.060,-71522.65418,37575.69642,10144.87566,33709.96221,27155.20139,-56843.03425,20901.74209,-73759.16973,-0.02,0.092,-0.988,192,0,0,0,0,0,0,0,0,0,0
 2023-06-24 15:05:29.061,-71235.81424,37720.66983,10265.64214,33931.93739,27271.31871,-56570.38767,21019.04404,-73572.55501,-0.02,0.092,-0.988,192,0,0,0,0,0,0,0,0,0,0
 2023-06-24 15:05:29.061,-71065.53865,36345.34464,8872.614369,32655.07163,25884.68354,-55248.19258,19630.37486,-72702.33455,-0.02,0.092,-0.988,192,0,0,0,0,0,0,0,0,0,0
 2023-06-24 15:05:29.061,-71262.54693,35505.58961,8052.238292,31774.25644,25067.81668,-54816.6698,18821.59934,-72439.61214,-0.02,0.092,-0.988,192,0,0,0,0,0,0,0,0,0,0
 2023-06-24 15:05:29.061,-71545.22944,36196.7726,8768.611702,32364.92364,25780.14443,-55781.59461,19530.70844,-73072.99353,-0.02,0.092,-0.988,192,0,0,0,0,0,0,0,0,0,0
 2023-06-24 15:05:29.061,-71532.6007,37540.06774,10111.39275,33673.32771,27118.07515,-56843.48128,20857.44093,-73758.8121,-0.02,0.092,-0.988,192,0,0,0,0,0,0,0,0,0,0
 2023-06-24 15:05:29.061,-71247.61596,37702.11788,10244.16211,33920.33683,27257.7959,-56588.13495,20992.8031,-73584.89318,-0.02,0.092,-0.988,192,0,0,0,0,0,0,0,0,0,0
 2023-06-24 15:05:29.061,-71074.38994,36326.50212,8847.513359,32634.50803,25862.01887,-55272.80185,19602.54694,-72722.2723,-0.02,0.094,-0.99,192,255,96,2,240,225,16,0,0,0,0
 2023-06-24 15:05:29.061,-71270.70531,35455.14172,7995.397806,31719.31585,25012.76434,-54824.98465,18767.77634,-72450.20687,-0.02,0.094,-0.99,192,0,0,0,0,0,0,0,0,0,0
 2023-06-24 15:05:29.061,-71536.95929,36251.42261,8818.344333,32411.8176,25831.79931,-55761.92507,19582.00569,-73061.66119,-0.02,0.094,-0.99,192,0,0,0,0,0,0,0,0,0,0
 2023-06-24 15:05:29.061,-71522.49772,37607.50295,10173.39649,33749.41304,27186.58324,-56826.20339,20915.51076,-73747.9268,-0.02,0.094,-0.99,192,0,0,0,0,0,0,0,0,0,0
 2023-06-24 15:05:29.061,-71241.46923,37747.38017,10287.30098,33971.52233,27302.78996,-56590.32543,21030.91282,-73587.03894,-0.02,0.094,-0.99,192,0,0,0,0,0,0,0,0,0,0
 2023-06-24 15:05:29.061,-71067.19268,36380.28042,8898.207116,32689.44862,25916.2889,-55280.37909,19664.88596,-72726.56384,-0.02,0.094,-0.99,192,0,0,0,0,0,0,0,0,0,0
 2023-06-24 15:05:29.061,-71263.01631,35477.56052,8017.816605,31749.33425,25033.17148,-54822.32479,18791.91623,-72447.23409,-0.02,0.094,-0.99,192,0,0,0,0,0,0,0,0,0,0
 2023-06-24 15:05:29.061,-71536.57932,36197.82313,8761.526199,32362.88963,25773.26009,-55756.02421,19526.66277,-73060.63301,-0.02,0.094,-0.99,192,0,0,0,0,0,0,0,0,0,0
 2023-06-24 15:05:29.061,-71524.41997,37570.89079,10135.37617,33703.01082,27144.60667,-56825.51048,20883.32425,-73752.08423,-0.02,0.094,-0.99,192,0,0,0,0,0,0,0,0,0,0
 2023-06-24 15:05:29.061,-71240.68692,37751.38113,10289.22323,33965.88969,27300.59949,-56598.9085,21034.57851,-73597.61132,-0.02,0.094,-0.99,192,0,0,0,0,0,0,0,0,0,0
 2023-06-24 15:05:29.061,-71068.28792,36354.21829,8874.178991,32652.23296,25882.31425,-55298.01462,19632.0736,-72743.9535,-0.014,0.096,-0.988,192,255,144,3,0,225,32,0,0,0,0
 2023-06-24 15:05:29.061,-71253.29331,35505.20963,8048.393792,31766.92507,25050.00234,-54814.56874,18799.67228,-72445.84828,-0.014,0.096,-0.988,192,0,0,0,0,0,0,0,0,0,0
 2023-06-24 15:05:29.061,-71526.45398,36209.26722,8776.948902,32378.71467,25781.93257,-55733.76187,19538.06216,-73048.40661,-0.014,0.096,-0.988,192,0,0,0,0,0,0,0,0,0,0
 2023-06-24 15:05:29.061,-71522.43066,37551.78005,10122.23335,33689.10804,27126.09942,-56814.40166,20877.17752,-73748.26208,-0.014,0.096,-0.988,192,0,0,0,0,0,0,0,0,0,0
 2023-06-24 15:05:29.061,-71247.34774,37691.05377,10238.06009,33908.89274,27240.22743,-56614.68883,20988.17628,-73611.71527,-0.014,0.096,-0.988,192,0,0,0,0,0,0,0,0,0,0
 2023-06-24 15:05:29.061,-71075.55223,36283.43031,8809.47069,32598.52172,25819.55055,-55324.41203,19581.73747,-72765.36647,-0.014,0.096,-0.988,192,0,0,0,0,0,0,0,0,0,0
 2023-06-24 15:05:29.061,-71253.29331,35431.71709,7977.51641,31714.1079,24991.17255,-54822.81653,18744.48582,-72455.21366,-0.014,0.096,-0.988,192,0,0,0,0,0,0,0,0,0,0
 2023-06-24 15:05:29.061,-71520.75428,36145.09537,8717.962649,32321.65066,25722.96866,-55725.24586,19471.74453,-73047.42313,-0.014,0.096,-0.988,192,0,0,0,0,0,0,0,0,0,0
 2023-06-24 15:05:29.061,-71517.51328,37514.25147,10088.9516,33642.54935,27084.45812,-56809.61839,20842.08528,-73746.71981,-0.014,0.096,-0.988,192,0,0,0,0,0,0,0,0,0,0
 2023-06-24 15:05:29.061,-71229.66751,37788.75325,10337.57005,33991.88477,27334.93177,-56616.07464,21086.18868,-73609.5248,-0.014,0.096,-0.988,192,0,0,0,0,0,0,0,0,0,0
 2023-06-24 15:05:29.061,-71038.89537,36482.36084,9010.167004,32787.72924,26018.59284,-55319.44994,19763.70302,-72754.52587,-0.016,0.1,-0.988,192,255,128,3,32,225,32,0,0,0,0
 2023-06-24 15:05:29.061,-71224.95129,35526.48849,8074.500629,31794.1942,25084.46873,-54809.45019,18840.35246,-72440.70738,-0.016,0.1,-0.988,192,0,0,0,0,0,0,0,0,0,0
 2023-06-24 15:05:29.061,-71502.15763,36170.4646,8745.097666,32341.76723,25750.19309,-55709.0632,19492.10697,-73031.26282,-0.016,0.1,-0.988,192,0,0,0,0,0,0,0,0,0,0
 2023-06-24 15:05:29.061,-71508.05849,37499.67813,10074.37826,33635.97794,27073.01403,-56806.64561,20816.53724,-73740.66248,-0.016,0.1,-0.988,192,0,0,0,0,0,0,0,0,0,0
 2023-06-24 15:05:29.061,-71228.95226,37738.03714,10284.84229,33947.4495,27294.07278,-56633.86662,21047.83309,-73618.66666,-0.016,0.1,-0.988,192,0,0,0,0,0,0,0,0,0,0
 2023-06-24 15:05:29.061,-71041.86816,36410.90231,8931.801788,32721.63513,25955.40446,-55345.69089,19707.22016,-72770.2615,-0.016,0.1,-0.988,192,0,0,0,0,0,0,0,0,0,0
 2023-06-24 15:05:29.061,-71217.64227,35506.7966,8046.5833,31781.85603,25073.20345,-54807.79616,18819.63239,-72436.57231,-0.016,0.1,-0.988,192,0,0,0,0,0,0,0,0,0,0
 2023-06-24 15:05:29.061,-71490.2218,36176.76779,8742.057829,32350.3056,25765.19111,-55687.53847,19517.74442,-73014.67782,-0.016,0.1,-0.988,192,0,0,0,0,0,0,0,0,0,0
 2023-06-24 15:05:29.061,-71504.92925,37491.81032,10061.45895,33616.33076,27073.12579,-56795.76031,20829.00951,-73732.12412,-0.016,0.1,-0.988,192,0,0,0,0,0,0,0,0,0,0
 2023-06-24 15:05:29.061,-71232.84146,37738.1489,10282.56241,33925.79066,27292.21759,-56643.70139,21045.82143,-73623.87462,-0.016,0.1,-0.988,192,0,0,0,0,0,0,0,0,0,0
 2023-06-24 15:05:29.061,-71051.65822,36361.88494,8884.594904,32650.48953,25895.05475,-55367.32738,19645.26113,-72784.25369,-0.016,0.092,-0.986,192,255,128,2,224,225,48,0,0,0,0
 2023-06-24 15:05:29.061,-71230.40512,35411.62287,7956.952805,31668.39858,24965.13277,-54817.85444,18712.94751,-72443.09902,-0.016,0.092,-0.986,192,0,0,0,0,0,0,0,0,0,0
 2023-06-24 15:05:29.061,-71504.23634,36082.66694,8655.556578,32238.27866,25661.21079,-55687.73963,19404.80106,-73013.98492,-0.016,0.092,-0.986,192,0,0,0,0,0,0,0,0,0,0
 2023-06-24 15:05:29.061,-71516.10512,37455.0417,10025.78557,33583.54075,27036.53598,-56798.44252,20779.85803,-73730.6489,-0.016,0.092,-0.986,192,0,0,0,0,0,0,0,0,0,0
 2023-06-24 15:05:29.061,-71246.96776,37696.61936,10238.57418,33903.05893,27256.83478,-56665.53905,21006.41531,-73633.12824,-0.016,0.092,-0.986,192,0,0,0,0,0,0,0,0,0,0
 2023-06-24 15:05:29.061,-71052.6417,36385.01899,8904.398549,32688.86747,25924.13436,-55384.9182,19683.12498,-72789.17107,-0.016,0.092,-0.986,192,0,0,0,0,0,0,0,0,0,0
 2023-06-24 15:05:29.061,-71226.15829,35416.16028,7957.042212,31685.47531,24970.43013,-54815.3287,18724.9057,-72434.91828,-0.016,0.092,-0.986,192,0,0,0,0,0,0,0,0,0,0
 2023-06-24 15:05:29.061,-71501.8,36076.22964,8645.520645,32244.15716,25656.24871,-55673.88155,19405.24809,-72999.47864,-0.016,0.092,-0.986,192,0,0,0,0,0,0,0,0,0,0
 2023-06-24 15:05:29.061,-71525.67166,37410.8076,9980.83621,33540.17836,26993.62063,-56799.78362,20738.14967,-73729.44191,-0.016,0.092,-0.986,192,0,0,0,0,0,0,0,0,0,0
 2023-06-24 15:05:29.061,-71255.1485,37700.73208,10248.476,33897.24748,27255.82895,-56679.30772,21010.79625,-73641.15252,-0.016,0.092,-0.986,192,0,0,0,0,0,0,0,0,0,0
 2023-06-24 15:05:29.061,-71060.17423,36395.4349,8922.749331,32689.8286,25932.85154,-55404.92301,19683.86259,-72801.97862,-0.022,0.094,-0.984,192,255,80,2,240,225,64,0,0,0,0
 2023-06-24 15:05:29.061,-71223.0961,35452.45951,7997.744739,31721.1487,25012.07143,-54810.36661,18761.13787,-72431.61022,-0.022,0.094,-0.984,192,0,0,0,0,0,0,0,0,0,0
 2023-06-24 15:05:29.061,-71504.48221,36036.26472,8608.282639,32210.38368,25619.92712,-55663.64445,19366.51252,-72992.75076,-0.022,0.094,-0.984,192,0,0,0,0,0,0,0,0,0,0
 2023-06-24 15:05:29.061,-71536.4005,37340.53371,9917.871346,33467.40108,26917.33413,-56801.57176,20664.8583,-73727.87729,-0.022,0.094,-0.984,192,0,0,0,0,0,0,0,0,0,0
 2023-06-24 15:05:29.061,-71271.8229,37634.03447,10185.46643,33827.24182,27190.40539,-56701.4136,20945.05977,-73651.99311,-0.022,0.094,-0.984,192,0,0,0,0,0,0,0,0,0,0
 2023-06-24 15:05:29.061,-71060.66597,36428.33667,8951.270157,32727.96067,25970.7154,-55424.36903,19715.26679,-72810.0476,-0.022,0.094,-0.984,192,0,0,0,0,0,0,0,0,0,0
 2023-06-24 15:05:29.061,-71220.81622,35459.88029,7999.197602,31742.9193,25023.94021,-54814.68049,18770.4809,-72430.0456,-0.022,0.094,-0.984,192,0,0,0,0,0,0,0,0,0,0
 2023-06-24 15:05:29.061,-71506.38211,36019.81384,8591.51883,32198.55961,25605.21967,-55656.08956,19352.56503,-72985.30763,-0.022,0.094,-0.984,192,0,0,0,0,0,0,0,0,0,0
