 Timestamp_formatted, EXG Channel 0, EXG Channel 1, EXG Channel 2, EXG Channel 3, EXG Channel 4, EXG Channel 5, EXG Channel 6, EXG Channel 7, Accel Channel 0, Accel Channel 1, Accel Channel 2, Other, Other.1, Other.2, Other.3, Other.4, Other.5, Other.6, Analog Channel 0, Analog Channel 1, Analog Channel 2, Other.7
 2023-06-24 15:07:57.549,-35979.71481,29461.52144,2115.838482,22950.6371,18427.0687,-61464.1233,10757.71579,-54412.97494,-0.016,0.098,-0.986,192,0,0,0,0,0,0,0,0,0,0
 2023-06-24 15:07:57.549,-36202.29348,29816.13187,2493.851184,23239.44399,18796.87831,-62164.15759,11139.0142,-54824.00117,-0.016,0.098,-0.986,192,0,0,0,0,0,0,0,0,0,0
 2023-06-24 15:07:57.549,-36168.43059,30904.08068,3589.198421,24306.38216,19888.53751,-63123.27094,12221.48683,-55415.27187,-0.016,0.098,-0.986,192,0,0,0,0,0,0,0,0,0,0
 2023-06-24 15:07:57.549,-35906.66931,31276.93013,3939.450257,24738.01669,20250.07698,-63059.07673,12578.06421,-55394.03771,-0.016,0.098,-0.986,192,0,0,0,0,0,0,0,0,0,0
 2023-06-24 15:07:57.549,-35766.61328,30287.79838,2930.604271,23806.50774,19245.92486,-62016.36785,11580.95289,-54763.20443,-0.016,0.098,-0.986,192,0,0,0,0,0,0,0,0,0,0
 2023-06-24 15:07:57.549,-35942.63326,29413.71106,2073.459574,22906.4924,18376.28554,-61463.76568,10719.98605,-54413.15376,-0.016,0.098,-0.986,192,0,0,0,0,0,0,0,0,0,0
 2023-06-24 15:07:57.549,-36179.18178,29783.38656,2464.257474,23204.64232,18755.79581,-62152.42292,11091.91908,-54814.41227,-0.016,0.098,-0.986,192,0,0,0,0,0,0,0,0,0,0
 2023-06-24 15:07:57.549,-36158.61817,30900.63851,3587.857316,24302.53766,19883.17309,-63122.01925,12207.53934,-55409.12514,-0.016,0.098,-0.986,192,0,0,0,0,0,0,0,0,0,0
 2023-06-24 15:07:57.549,-35903.18244,31325.12049,3995.799005,24785.69296,20307.43156,-63073.51596,12625.18169,-55396.27289,-0.016,0.098,-0.986,192,0,0,0,0,0,0,0,0,0,0
 2023-06-24 15:07:57.549,-35755.3927,30411.53764,3058.702118,23929.50939,19379.54359,-62024.6827,11702.61344,-54761.21512,-0.018,0.092,-0.988,192,255,112,2,224,225,32,0,0,0,0
 2023-06-24 15:07:57.549,-35936.95592,29454.68181,2113.268031,22951.88879,18434.89181,-61455.02614,10763.10256,-54402.42492,-0.018,0.092,-0.988,192,0,0,0,0,0,0,0,0,0,0
 2023-06-24 15:07:57.549,-36173.43738,29823.59735,2503.596545,23252.83268,18820.16883,-62128.99829,11152.13468,-54795.81562,-0.018,0.092,-0.988,192,0,0,0,0,0,0,0,0,0,0
 2023-06-24 15:07:57.549,-36158.72993,30951.30991,3638.551073,24333.53953,19937.66665,-63110.26223,12268.58196,-55398.30689,-0.018,0.092,-0.988,192,0,0,0,0,0,0,0,0,0,0
 2023-06-24 15:07:57.549,-35915.25238,31330.08258,3999.062359,24755.92044,20301.70951,-63089.40805,12626.67926,-55404.47598,-0.018,0.092,-0.988,192,0,0,0,0,0,0,0,0,0,0
 2023-06-24 15:07:57.549,-35770.7707,30369.51636,3014.311554,23875.86521,19333.05196,-62053.06942,11635.5582,-54779.43179,-0.018,0.092,-0.988,192,0,0,0,0,0,0,0,0,0,0
 2023-06-24 15:07:57.549,-35949.87523,29400.59059,2056.673414,22893.72955,18371.54697,-61464.88326,10676.5119,-54407.54347,-0.018,0.092,-0.988,192,0,0,0,0,0,0,0,0,0,0
 2023-06-24 15:07:57.549,-36189.95532,29757.83852,2436.742477,23183.69874,18741.15541,-62124.25973,11049.76369,-54790.49591,-0.018,0.092,-0.988,192,0,0,0,0,0,0,0,0,0,0
 2023-06-24 15:07:57.549,-36181.57341,30877.12447,3565.304406,24268.87593,19856.41806,-63113.03384,12180.31492,-55397.81516,-0.018,0.092,-0.988,192,0,0,0,0,0,0,0,0,0,0
 2023-06-24 15:07:57.549,-35916.63819,31420.54008,4090.056311,24839.3595,20376.99018,-63091.12914,12725.38456,-55401.39143,-0.018,0.092,-0.988,192,0,0,0,0,0,0,0,0,0,0
 2023-06-24 15:07:57.549,-35750.40826,30559.01445,3201.261544,24043.30212,19497.42669,-62045.1122,11849.10677,-54768.52414,-0.014,0.092,-0.994,192,255,144,2,224,224,240,0,0,0,0
 2023-06-24 15:07:57.549,-35928.61872,29527.32498,2174.75768,23030.65634,18487.41841,-61438.61996,10826.26859,-54385.95168,-0.014,0.092,-0.994,192,0,0,0,0,0,0,0,0,0,0
 2023-06-24 15:07:57.549,-36190.17883,29744.94156,2417.765846,23185.88921,18720.88238,-62102.7797,11050.79187,-54774.31324,-0.014,0.092,-0.994,192,0,0,0,0,0,0,0,0,0,0
 2023-06-24 15:07:57.549,-36195.31974,30827.92828,3510.430874,24230.45328,19807.7136,-63107.9153,12146.72025,-55392.96483,-0.014,0.092,-0.994,192,0,0,0,0,0,0,0,0,0,0
 2023-06-24 15:07:57.549,-35943.48263,31325.45576,3993.161499,24761.50838,20288.85726,-63116.3419,12630.85903,-55416.85884,-0.014,0.092,-0.994,192,0,0,0,0,0,0,0,0,0,0
 2023-06-24 15:07:57.549,-35773.2741,30482.50443,3130.026535,23971.77654,19423.3083,-62075.68938,11762.382,-54788.5066,-0.014,0.092,-0.994,192,0,0,0,0,0,0,0,0,0,0
 2023-06-24 15:07:57.549,-35947.12597,29416.12505,2073.996016,22902.08911,18368.86476,-61446.59954,10702.66345,-54392.36663,-0.014,0.092,-0.994,192,0,0,0,0,0,0,0,0,0,0
 2023-06-24 15:07:57.549,-36202.29348,29672.36545,2354.555113,23107.21107,18647.18868,-62089.32395,10980.02624,-54764.7914,-0.014,0.092,-0.994,192,0,0,0,0,0,0,0,0,0,0
 2023-06-24 15:07:57.549,-36203.61223,30841.36168,3529.586319,24238.76813,19818.86713,-63096.24768,12156.68913,-55380.73842,-0.014,0.092,-0.994,192,0,0,0,0,0,0,0,0,0,0
 2023-06-24 15:07:57.549,-35957.74304,31331.71425,3998.369455,24757.23919,20291.2936,-63126.19902,12634.45766,-55417.84232,-0.014,0.092,-0.994,192,0,0,0,0,0,0,0,0,0,0
 2023-06-24 15:07:57.549,-35786.52868,30485.85719,3135.569767,23971.86595,19432.31606,-62092.43084,11775.48012,-54794.87685,-0.016,0.094,-0.982,192,255,128,2,240,225,80,0,0,0,0
 2023-06-24 15:07:57.549,-35956.46899,29407.98901,2071.313807,22894.17659,18369.4012,-61442.84444,10695.62265,-54388.43273,-0.016,0.094,-0.982,192,0,0,0,0,0,0,0,0,0,0
 2023-06-24 15:07:57.549,-36212.97761,29647.82323,2333.656232,23087.54153,18631.36365,-62071.93429,10949.65022,-54754.42019,-0.016,0.094,-0.982,192,0,0,0,0,0,0,0,0,0,0
 2023-06-24 15:07:57.549,-36226.79099,30754.10047,3446.348422,24159.73236,19742.60297,-63094.79482,12064.91286,-55382.01247,-0.016,0.094,-0.982,192,0,0,0,0,0,0,0,0,0,0
 2023-06-24 15:07:57.549,-35978.79839,31278.53945,3952.146048,24710.65816,20247.26066,-63143.09694,12577.12544,-55428.36999,-0.016,0.094,-0.982,192,0,0,0,0,0,0,0,0,0,0
 2023-06-24 15:07:57.549,-35803.76188,30435.56576,3085.211287,23930.06819,19382.11404,-62117.53185,11721.12068,-54809.11491,-0.016,0.094,-0.982,192,0,0,0,0,0,0,0,0,0,0
 2023-06-24 15:07:57.549,-35964.09094,29384.85496,2042.52476,22880.89965,18347.98823,-61442.73268,10693.61099,-54384.96821,-0.016,0.094,-0.982,192,0,0,0,0,0,0,0,0,0,0
 2023-06-24 15:07:57.549,-36217.47031,29647.77853,2328.492979,23089.26262,18635.29755,-62054.07525,10975.82411,-54738.61751,-0.016,0.094,-0.982,192,0,0,0,0,0,0,0,0,0,0
 2023-06-24 15:07:57.549,-36229.87553,30817.80294,3506.340504,24220.26088,19804.11497,-63078.09807,12140.70763,-55364.86868,-0.016,0.094,-0.982,192,0,0,0,0,0,0,0,0,0,0
 2023-06-24 15:07:57.549,-35981.83822,31375.65778,4047.587996,24813.0962,20342.99318,-63143.8122,12672.23211,-55421.39625,-0.016,0.094,-0.982,192,0,0,0,0,0,0,0,0,0,0
 2023-06-24 15:07:57.549,-35794.68707,30589.32341,3239.684193,24090.84428,19540.4985,-62117.08482,11864.52947,-54800.57654,-0.018,0.09,-0.984,192,255,112,2,208,225,64,0,0,0,0
 2023-06-24 15:07:57.549,-35938.09586,29602.42684,2261.951835,23103.59008,18569.51637,-61407.86396,10892.56387,-54352.31231,-0.018,0.09,-0.984,192,0,0,0,0,0,0,0,0,0,0
 2023-06-24 15:07:57.549,-36199.54422,29788.57217,2472.281751,23236.71707,18774.68303,-62008.14241,11101.19505,-54700.88776,-0.018,0.09,-0.984,192,0,0,0,0,0,0,0,0,0,0
 2023-06-24 15:07:57.549,-36227.10392,30896.41403,3586.583267,24313.71353,19886.90584,-63048.01262,12223.90082,-55336.50432,-0.018,0.09,-0.984,192,0,0,0,0,0,0,0,0,0,0
 2023-06-24 15:07:57.549,-35984.98982,31449.06091,4119.292393,24894.12128,20422.6548,-63137.48665,12764.81304,-55409.46041,-0.018,0.09,-0.984,192,0,0,0,0,0,0,0,0,0,0
 2023-06-24 15:07:57.549,-35796.56461,30663.4418,3312.305011,24164.53799,19614.50513,-62121.37635,11960.17259,-54798.25196,-0.018,0.09,-0.984,192,0,0,0,0,0,0,0,0,0,0
 2023-06-24 15:07:57.549,-35946.50012,29586.80297,2247.266739,23087.94386,18554.13837,-61405.33822,10894.35201,-54351.26178,-0.018,0.09,-0.984,192,0,0,0,0,0,0,0,0,0,0
 2023-06-24 15:07:57.549,-36212.64234,29752.02706,2437.971823,23196.14866,18749.15734,-61994.39609,11080.43028,-54695.38923,-0.018,0.09,-0.984,192,0,0,0,0,0,0,0,0,0,0
 2023-06-24 15:07:57.549,-36233.98825,30941.45279,3641.546207,24339.12746,19936.68317,-63027.8737,12269.67719,-55328.52475,-0.018,0.09,-0.984,192,0,0,0,0,0,0,0,0,0,0
 2023-06-24 15:07:57.549,-35996.09864,31479.66045,4161.514838,24913.32143,20453.47785,-63136.88316,12786.7848,-55416.3224,-0.018,0.09,-0.984,192,0,0,0,0,0,0,0,0,0,0
 2023-06-24 15:07:57.549,-35806.17586,30662.12304,3318.31763,24171.73525,19624.63047,-62132.35106,11947.81207,-54811.99829,-0.018,0.09,-0.984,192,0,0,0,0,0,0,0,0,0,0
 2023-06-24 15:07:57.549,-35944.91314,29597.82238,2262.309463,23111.05557,18574.72433,-61393.6259,10912.8369,-54347.23846,-0.016,0.094,-0.982,192,255,128,2,240,225,80,0,0,0,0
 2023-06-24 15:07:57.549,-36211.70356,29753.54698,2441.90573,23212.46543,18748.95617,-61968.3116,11092.85785,-54680.01123,-0.016,0.094,-0.982,192,0,0,0,0,0,0,0,0,0,0
 2023-06-24 15:07:57.549,-36244.06889,30920.08453,3620.06618,24333.80775,19916.00781,-63013.68034,12265.07273,-55317.93002,-0.016,0.094,-0.982,192,0,0,0,0,0,0,0,0,0,0
 2023-06-24 15:07:57.549,-36008.52621,31516.11614,4195.400083,24971.10068,20496.88494,-63141.59937,12839.2667,-55414.46721,-0.016,0.094,-0.982,192,0,0,0,0,0,0,0,0,0,0
 2023-06-24 15:07:57.549,-35833.08736,30699.00342,3351.040584,24218.85272,19659.47684,-62149.67366,12012.27451,-54819.01673,-0.016,0.094,-0.982,192,0,0,0,0,0,0,0,0,0,0
 2023-06-24 15:07:57.549,-35994.28815,29541.69715,2202.004457,23061.65821,18512.56412,-61397.89509,10872.31319,-54349.40658,-0.016,0.094,-0.982,192,0,0,0,0,0,0,0,0,0,0
 2023-06-24 15:07:57.549,-36276.8142,29670.68907,2358.176095,23125.85242,18660.64443,-61957.87334,11009.50819,-54675.85381,-0.016,0.094,-0.982,192,0,0,0,0,0,0,0,0,0,0
 2023-06-24 15:07:57.549,-36323.90932,30860.22655,3557.190723,24277.43665,19859.77082,-63007.62302,12205.57239,-55316.23129,-0.016,0.094,-0.982,192,0,0,0,0,0,0,0,0,0,0
 2023-06-24 15:07:57.549,-36094.2675,31508.71772,4191.153251,24952.28052,20491.58758,-63149.62365,12840.18312,-55420.27866,-0.016,0.094,-0.982,192,0,0,0,0,0,0,0,0,0,0
 2023-06-24 15:07:57.549,-35915.05121,30678.93156,3336.579005,24188.32024,19638.53325,-62167.71152,11984.35718,-54832.15956,-0.016,0.094,-0.982,192,0,0,0,0,0,0,0,0,0,0
 2023-06-24 15:07:57.550,-36060.49401,29565.27824,2231.397001,23078.69024,18532.90421,-61390.72018,10879.91278,-54345.45032,-0.012,0.094,-0.986,192,255,160,2,240,225,48,0,0,0,0
 2023-06-24 15:07:58.028,-36339.15321,29723.37213,2417.028238,23172.12053,18716.54614,-61929.1737,11068.65091,-54657.7489,-0.012,0.094,-0.986,192,0,0,0,0,0,0,0,0,0,0
 2023-06-24 15:07:58.028,-36384.25903,30958.8201,3659.628768,24359.60166,19958.83375,-62976.30822,12301.70724,-55296.80762,-0.012,0.094,-0.986,192,0,0,0,0,0,0,0,0,0,0
 2023-06-24 15:07:58.029,-36157.32177,31578.45516,4261.829467,25009.79155,20555.51357,-63140.7053,12898.54352,-55418.40111,-0.012,0.094,-0.986,192,0,0,0,0,0,0,0,0,0,0
 2023-06-24 15:07:58.029,-35964.53797,30799.45216,3458.708937,24292.27821,19755.58934,-62162.79413,12095.95944,-54832.83011,-0.012,0.094,-0.986,192,0,0,0,0,0,0,0,0,0,0
 2023-06-24 15:07:58.029,-36096.14505,29690.87269,2358.287854,23181.62002,18654.29654,-61364.23336,10997.14768,-54330.54171,-0.012,0.094,-0.986,192,0,0,0,0,0,0,0,0,0,0
 2023-06-24 15:07:58.029,-36368.16578,29863.71873,2556.190199,23301.91711,18851.88596,-61884.40316,11187.78571,-54627.99872,-0.012,0.094,-0.986,192,0,0,0,0,0,0,0,0,0,0
 2023-06-24 15:07:58.029,-36431.75649,30998.98618,3697.157347,24410.31777,19996.27292,-62949.79905,12324.03664,-55278.45684,-0.012,0.094,-0.986,192,0,0,0,0,0,0,0,0,0,0
 2023-06-24 15:07:58.029,-36209.62485,31634.22276,4313.819625,25082.70294,20622.01001,-63136.88316,12952.16536,-55411.29326,-0.012,0.094,-0.986,192,0,0,0,0,0,0,0,0,0,0
 2023-06-24 15:07:58.029,-36018.65155,30861.72412,3518.209281,24373.14682,19828.99247,-62173.94765,12157.24792,-54834.35003,-0.012,0.094,-0.986,192,0,0,0,0,0,0,0,0,0,0
 2023-06-24 15:07:58.029,-36162.88735,29619.77179,2281.777833,23127.14882,18590.90699,-61372.01177,10930.38302,-54334.54267,-0.016,0.09,-0.988,192,255,128,2,208,225,32,0,0,0,0
 2023-06-24 15:07:58.029,-36432.38234,29801.55853,2485.625742,23241.70151,18791.53625,-61871.90853,11140.37766,-54621.04733,-0.016,0.09,-0.988,192,0,0,0,0,0,0,0,0,0,0
 2023-06-24 15:07:58.029,-36493.29084,30976.00859,3670.15644,24379.07003,19976.67044,-62934.9575,12316.95113,-55268.84559,-0.016,0.09,-0.988,192,0,0,0,0,0,0,0,0,0,0
 2023-06-24 15:07:58.029,-36272.50031,31619.64942,4294.060683,25061.75936,20603.56982,-63140.28062,12939.08959,-55412.14262,-0.016,0.09,-0.988,192,0,0,0,0,0,0,0,0,0,0
 2023-06-24 15:07:58.029,-36078.64363,30851.73289,3501.020789,24361.4345,19815.29085,-62186.107,12152.10702,-54842.01668,-0.016,0.09,-0.988,192,0,0,0,0,0,0,0,0,0,0
 2023-06-24 15:07:58.029,-36204.75217,29707.70356,2365.932151,23218.54511,18680.7163,-61354.91268,11029.82593,-54321.53396,-0.016,0.09,-0.988,192,0,0,0,0,0,0,0,0,0,0
 2023-06-24 15:07:58.029,-36481.01973,29811.12508,2497.092187,23261.92984,18808.45652,-61845.91345,11155.35333,-54605.9152,-0.016,0.09,-0.988,192,0,0,0,0,0,0,0,0,0,0
 2023-06-24 15:07:58.029,-36552.16534,30952.33809,3648.832875,24364.00495,19958.76669,-62915.8244,12304.52356,-55260.82131,-0.016,0.09,-0.988,192,0,0,0,0,0,0,0,0,0,0
 2023-06-24 15:07:58.029,-36334.23583,31609.76995,4293.501889,25044.34735,20596.70783,-63142.26993,12943.69405,-55419.74222,-0.016,0.09,-0.988,192,0,0,0,0,0,0,0,0,0,0
 2023-06-24 15:07:58.029,-36137.60753,30844.87091,3501.445472,24355.35483,19814.68735,-62201.82028,12155.34802,-54859.76396,-0.016,0.09,-0.988,192,0,0,0,0,0,0,0,0,0,0
 2023-06-24 15:07:58.029,-36255.06595,29715.03493,2374.783441,23232.20202,18697.23424,-61349.83883,11025.28853,-54326.83132,-0.024,0.09,-0.988,192,255,64,2,208,225,32,0,0,0,0
 2023-06-24 15:07:58.029,-36525.29854,29848.36308,2533.369068,23304.12993,18847.90735,-61816.11858,11174.73229,-54593.88996,-0.024,0.09,-0.988,192,0,0,0,0,0,0,0,0,0,0
 2023-06-24 15:07:58.029,-36612.85032,30903.83481,3600.150776,24321.46958,19913.68323,-62898.39004,12242.67629,-55257.02152,-0.024,0.09,-0.988,192,0,0,0,0,0,0,0,0,0,0
 2023-06-24 15:07:58.029,-36392.75269,31623.85155,4303.470767,25069.40366,20623.88755,-63138.33602,12950.8019,-55422.31267,-0.024,0.09,-0.988,192,0,0,0,0,0,0,0,0,0,0
 2023-06-24 15:07:58.029,-36188.10012,30908.28281,3560.118802,24423.17002,19886.25763,-62204.61425,12205.14771,-54865.55307,-0.024,0.09,-0.988,192,0,0,0,0,0,0,0,0,0,0
 2023-06-24 15:07:58.029,-36315.14744,29667.60453,2325.117865,23186.04567,18646.69694,-61348.7436,10974.61712,-54332.66513,-0.024,0.09,-0.988,192,0,0,0,0,0,0,0,0,0,0
 2023-06-24 15:07:58.029,-36588.93396,29762.42063,2443.448,23222.09903,18766.39053,-61804.69683,11087.98517,-54593.15236,-0.024,0.09,-0.988,192,0,0,0,0,0,0,0,0,0,0
 2023-06-24 15:07:58.029,-36664.66167,30935.95427,3629.945651,24345.78828,19949.75894,-62877.29,12267.66554,-55243.58812,-0.024,0.09,-0.988,192,0,0,0,0,0,0,0,0,0,0
 2023-06-24 15:07:58.029,-36452.43185,31623.89626,4301.816738,25062.31815,20621.80884,-63141.93465,12940.5201,-55422.33502,-0.024,0.09,-0.988,192,0,0,0,0,0,0,0,0,0,0
 2023-06-24 15:07:58.029,-36246.68404,30906.11469,3557.056613,24412.19531,19881.54142,-62221.80274,12197.43636,-54874.91845,-0.024,0.09,-0.988,192,0,0,0,0,0,0,0,0,0,0
 2023-06-24 15:07:58.029,-36358.30866,29725.74141,2379.276142,23236.44885,18712.00874,-61341.23341,11038.47605,-54324.88672,-0.02,0.09,-0.988,192,255,96,2,208,225,32,0,0,0,0
 2023-06-24 15:07:58.029,-36633.39158,29800.28448,2475.768623,23251.73745,18810.08819,-61780.08756,11133.02393,-54575.7627,-0.02,0.09,-0.988,192,0,0,0,0,0,0,0,0,0,0
 2023-06-24 15:07:58.029,-36721.65861,30920.35275,3607.549203,24322.45306,19930.0,-62860.79441,12257.09316,-55232.45695,-0.02,0.09,-0.988,192,0,0,0,0,0,0,0,0,0,0
 2023-06-24 15:07:58.029,-36516.13432,31609.65819,4284.29297,25036.36778,20599.41239,-63148.05903,12924.31509,-55425.77719,-0.02,0.09,-0.988,192,0,0,0,0,0,0,0,0,0,0
 2023-06-24 15:07:58.029,-36308.10664,30919.41397,3569.886514,24420.91249,19889.76686,-62241.58403,12216.61415,-54885.40141,-0.02,0.09,-0.988,192,0,0,0,0,0,0,0,0,0,0
 2023-06-24 15:07:58.029,-36414.90327,29741.6335,2396.196413,23246.32832,18716.03205,-61341.27812,11050.72481,-54323.00917,-0.02,0.09,-0.988,192,0,0,0,0,0,0,0,0,0,0
 2023-06-24 15:07:58.029,-36696.11057,29766.04161,2443.224483,23207.32453,18757.29337,-61764.73192,11096.09885,-54565.88323,-0.02,0.09,-0.988,192,0,0,0,0,0,0,0,0,0,0
 2023-06-24 15:07:58.029,-36792.80422,30859.13132,3544.629043,24272.51926,19859.14497,-62848.70211,12181.9913,-55225.14793,-0.02,0.09,-0.988,192,0,0,0,0,0,0,0,0,0,0
 2023-06-24 15:07:58.029,-36579.94855,31624.09742,4294.530069,25070.5883,20610.96825,-63149.13191,12928.76308,-55424.48079,-0.02,0.09,-0.988,192,0,0,0,0,0,0,0,0,0,0
 2023-06-24 15:07:58.029,-36360.96851,30981.10479,3628.112808,24479.09409,19946.40618,-62253.16224,12271.26417,-54890.69878,-0.02,0.09,-0.988,192,0,0,0,0,0,0,0,0,0,0
 2023-06-24 15:07:58.029,-36464.45709,29767.53918,2421.677401,23274.04449,18738.51791,-61340.31699,11060.76074,-54322.60684,-0.018,0.09,-0.988,192,255,112,2,208,225,32,0,0,0,0
 2023-06-24 15:07:58.029,-36740.67995,29809.60516,2488.397358,23263.44976,18800.92398,-61743.29659,11130.40878,-54553.9921,-0.018,0.09,-0.988,192,0,0,0,0,0,0,0,0,0,0
 2023-06-24 15:07:58.029,-36845.8002,30866.97678,3557.347185,24274.75444,19867.54922,-62831.33481,12211.87558,-55218.10713,-0.018,0.09,-0.988,192,0,0,0,0,0,0,0,0,0,0
 2023-06-24 15:07:58.029,-36642.60049,31630.02063,4300.542688,25059.54654,20615.14802,-63153.66932,12962.42481,-55432.01332,-0.018,0.09,-0.988,192,0,0,0,0,0,0,0,0,0,0
 2023-06-24 15:07:58.029,-36423.70986,31008.91036,3654.711384,24493.55566,19968.15443,-62267.53441,12314.42539,-54905.07095,-0.018,0.09,-0.988,192,0,0,0,0,0,0,0,0,0,0
 2023-06-24 15:07:58.029,-36530.5959,29722.20984,2374.939904,23215.32645,18687.66769,-61345.27908,11022.18163,-54332.21809,-0.018,0.09,-0.988,192,0,0,0,0,0,0,0,0,0,0
 2023-06-24 15:07:58.029,-36814.3513,29706.9883,2385.40052,23155.49083,18699.06708,-61735.42878,11010.44697,-54557.94836,-0.018,0.09,-0.988,192,0,0,0,0,0,0,0,0,0,0
 2023-06-24 15:07:58.029,-36921.21499,30809.66691,3502.026618,24213.4436,19811.06637,-62818.59431,12127.29658,-55218.57652,-0.018,0.09,-0.988,192,0,0,0,0,0,0,0,0,0,0
 2023-06-24 15:07:58.029,-36716.69653,31617.86128,4295.17827,25046.2696,20606.87788,-63155.52451,12928.24899,-55440.61875,-0.018,0.09,-0.988,192,0,0,0,0,0,0,0,0,0,0
 2023-06-24 15:07:58.029,-36492.1509,31030.05511,3683.589838,24518.05318,19999.98331,-62281.90658,12325.4448,-54921.92416,-0.018,0.09,-0.988,192,0,0,0,0,0,0,0,0,0,0
 2023-06-24 15:07:58.029,-36592.24201,29743.60046,2401.516128,23234.32544,18714.19921,-61343.62505,11041.89587,-54338.40952,-0.02,0.092,-0.984,192,255,96,2,224,225,64,0,0,0,0
 2023-06-24 15:07:58.029,-36876.06446,29710.07284,2391.055511,23141.27512,18699.44706,-61718.68732,11019.72294,-54551.04167,-0.02,0.092,-0.984,192,0,0,0,0,0,0,0,0,0,0
 2023-06-24 15:07:58.029,-36984.60454,30824.06143,3516.264679,24229.26864,19831.89819,-62799.61768,12144.93211,-55206.57363,-0.02,0.092,-0.984,192,0,0,0,0,0,0,0,0,0,0
 2023-06-24 15:07:58.029,-36788.19976,31614.7991,4290.95379,25054.42799,20619.75248,-63158.56435,12930.66298,-55441.13284,-0.02,0.092,-0.984,192,0,0,0,0,0,0,0,0,0,0
 2023-06-24 15:07:58.029,-36561.57542,31050.84223,3702.365303,24539.73437,20029.62172,-62298.75979,12344.7567,-54930.77546,-0.02,0.092,-0.984,192,0,0,0,0,0,0,0,0,0,0
 2023-06-24 15:07:58.029,-36658.00085,29761.97359,2416.335334,23254.93375,18739.14376,-61346.46372,11057.5868,-54339.46006,-0.02,0.092,-0.984,192,0,0,0,0,0,0,0,0,0,0
 2023-06-24 15:07:58.029,-36935.45305,29768.29913,2443.246835,23219.23801,18769.47507,-61697.38611,11077.99394,-54536.73655,-0.02,0.092,-0.984,192,0,0,0,0,0,0,0,0,0,0
 2023-06-24 15:07:58.029,-37048.15055,30890.73669,3575.228581,24303.6776,19897.50056,-62777.53416,12207.76286,-55190.97211,-0.02,0.092,-0.984,192,0,0,0,0,0,0,0,0,0,0
 2023-06-24 15:07:58.029,-36850.11409,31733.73273,4406.288791,25162.78924,20722.25758,-63151.52355,13032.1399,-55432.52741,-0.02,0.092,-0.984,192,0,0,0,0,0,0,0,0,0,0
 2023-06-24 15:07:58.029,-36621.29928,31173.86623,3821.589508,24666.53581,20141.55926,-62306.91818,12460.18111,-54930.21666,-0.02,0.092,-0.984,192,0,0,0,0,0,0,0,0,0,0
 2023-06-24 15:07:58.029,-36717.25532,29840.33881,2486.072777,23358.04234,18808.79179,-61340.76403,11137.74015,-54331.21226,-0.024,0.09,-0.988,192,255,64,2,208,225,32,0,0,0,0
 2023-06-24 15:07:58.029,-37002.6871,29780.59259,2456.926102,23232.64906,18770.4362,-61676.7778,11105.28542,-54523.14669,-0.024,0.09,-0.988,192,0,0,0,0,0,0,0,0,0,0
 2023-06-24 15:07:58.029,-37124.99584,30852.87283,3549.769944,24266.03726,19856.12748,-62760.77035,12179.4432,-55183.32782,-0.024,0.09,-0.988,192,0,0,0,0,0,0,0,0,0,0
 2023-06-24 15:07:58.030,-36937.30824,31673.8524,4351.81759,25115.64942,20658.95744,-63158.43024,12981.28968,-55441.02108,-0.024,0.09,-0.988,192,0,0,0,0,0,0,0,0,0,0
 2023-06-24 15:07:58.030,-36711.198,31140.1151,3786.363159,24639.02082,20095.82759,-62327.92882,12429.53687,-54948.90272,-0.024,0.09,-0.988,192,0,0,0,0,0,0,0,0,0,0
 2023-06-24 15:07:58.030,-36800.33675,29840.60703,2483.301161,23351.69445,18800.36519,-61342.9545,11143.81983,-54339.84004,-0.024,0.09,-0.988,192,0,0,0,0,0,0,0,0,0,0
 2023-06-24 15:07:58.030,-37086.90847,29769.28261,2439.201169,23218.96979,18756.53341,-61662.42798,11083.2466,-54522.52084,-0.024,0.09,-0.988,192,0,0,0,0,0,0,0,0,0,0
 2023-06-24 15:07:58.030,-37214.84986,30838.16538,3526.635888,24228.19575,19829.61831,-62747.49342,12153.67164,-55182.5008,-0.024,0.09,-0.988,192,0,0,0,0,0,0,0,0,0,0
 2023-06-24 15:07:58.030,-37028.27984,31708.76583,4383.042977,25113.12367,20683.70082,-63160.26308,13014.97376,-55448.95595,-0.024,0.09,-0.988,192,0,0,0,0,0,0,0,0,0,0
 2023-06-24 15:07:58.030,-36794.92763,31202.32,3846.08702,24677.82345,20160.13356,-62343.0386,12485.08096,-54964.41483,-0.024,0.09,-0.988,192,0,0,0,0,0,0,0,0,0,0
 2023-06-24 15:07:58.030,-36876.28798,29892.91011,2536.610071,23387.47959,18853.83056,-61343.66975,11185.46113,-54345.27151,-0.022,0.096,-0.986,192,255,80,3,0,225,48,0,0,0,0
 2023-06-24 15:07:58.030,-37158.76933,29833.56623,2508.938612,23255.38078,18809.95408,-61638.3328,11139.59535,-54512.14963,-0.022,0.096,-0.986,192,0,0,0,0,0,0,0,0,0,0
 2023-06-24 15:07:58.030,-37290.80108,30897.3528,3589.064311,24275.13442,19891.01856,-62722.07948,12209.72982,-55169.51444,-0.022,0.096,-0.986,192,0,0,0,0,0,0,0,0,0,0
 2023-06-24 15:07:58.030,-37111.47304,31756.79973,4431.479207,25168.57835,20741.34597,-63156.50799,13041.52763,-55448.41951,-0.022,0.096,-0.986,192,0,0,0,0,0,0,0,0,0,0
 2023-06-24 15:07:58.030,-36882.18884,31249.07985,3895.976114,24721.02937,20213.10719,-62356.76257,12519.30148,-54976.57418,-0.022,0.096,-0.986,192,0,0,0,0,0,0,0,0,0,0
 2023-06-24 15:07:58.030,-36960.17408,29933.90321,2577.33495,23431.57958,18902.06562,-61343.71446,11212.37263,-54349.18306,-0.022,0.096,-0.986,192,0,0,0,0,0,0,0,0,0,0
 2023-06-24 15:07:58.030,-37246.65639,29842.17165,2507.821024,23285.86856,18836.77618,-61621.39018,11145.27269,-54503.00777,-0.022,0.096,-0.986,192,0,0,0,0,0,0,0,0,0,0
 2023-06-24 15:07:58.030,-37383.56082,30902.94074,3582.805822,24294.91571,19906.79889,-62702.20878,12215.92125,-55157.84683,-0.022,0.096,-0.986,192,0,0,0,0,0,0,0,0,0,0
 2023-06-24 15:07:58.030,-37212.61468,31744.19334,4410.535623,25159.39178,20735.17689,-63157.02208,13047.00381,-55450.54292,-0.022,0.096,-0.986,192,0,0,0,0,0,0,0,0,0,0
 2023-06-24 15:07:58.030,-36980.55887,31246.04002,3885.381387,24721.16348,20213.88951,-62374.64397,12527.21399,-54989.51584,-0.022,0.096,-0.986,192,0,0,0,0,0,0,0,0,0,0
 2023-06-24 15:07:58.030,-37046.63063,29959.02657,2598.546755,23460.25687,18928.48538,-61344.8544,11258.99837,-54349.31718,-0.022,0.092,-0.988,192,255,80,2,224,225,32,0,0,0,0
 2023-06-24 15:07:58.030,-37334.27523,29833.78975,2495.147585,23288.70723,18825.98028,-61605.14046,11157.25322,-54493.15065,-0.022,0.092,-0.988,192,0,0,0,0,0,0,0,0,0,0
 2023-06-24 15:07:58.030,-37476.78995,30865.54627,3540.516322,24284.56685,19870.25379,-62685.73555,12193.94948,-55148.43674,-0.022,0.092,-0.988,192,0,0,0,0,0,0,0,0,0,0
 2023-06-24 15:07:58.030,-37309.93418,31715.09137,4377.298579,25147.12067,20701.67162,-63159.16785,13027.89307,-55451.92873,-0.022,0.092,-0.988,192,0,0,0,0,0,0,0,0,0,0
 2023-06-24 15:07:58.030,-37079.0183,31228.44919,3865.667148,24712.15573,20184.58637,-62394.24645,12515.92636,-55002.30104,-0.022,0.092,-0.988,192,0,0,0,0,0,0,0,0,0,0
 2023-06-24 15:07:58.030,-37140.30679,29937.77006,2573.11047,23443.71658,18892.14145,-61351.40346,11230.72341,-54354.39102,-0.022,0.092,-0.988,192,0,0,0,0,0,0,0,0,0,0
 2023-06-24 15:07:58.030,-37425.5821,29802.87728,2466.827925,23249.09994,18777.40994,-61589.02485,11116.86362,-54483.5394,-0.022,0.092,-0.988,192,0,0,0,0,0,0,0,0,0,0
 2023-06-24 15:07:58.030,-37565.36991,30873.19057,3556.296653,24265.34435,19856.82039,-62662.80266,12182.17011,-55132.43289,-0.022,0.092,-0.988,192,0,0,0,0,0,0,0,0,0,0
 2023-06-24 15:07:58.030,-37401.59868,31719.2488,4390.530812,25122.93608,20686.18187,-63155.92684,13022.43924,-55449.00065,-0.022,0.092,-0.988,192,0,0,0,0,0,0,0,0,0,0
 2023-06-24 15:07:58.030,-37163.66436,31280.14878,3927.290908,24745.48218,20228.66401,-62405.95876,12557.94764,-55005.58674,-0.022,0.092,-0.988,192,0,0,0,0,0,0,0,0,0,0
 2023-06-24 15:07:58.030,-37222.91884,29931.08689,2576.910267,23416.89449,18875.95879,-61358.48896,11210.47273,-54356.11211,-0.016,0.088,-0.988,192,255,128,2,192,225,32,0,0,0,0
 2023-06-24 15:07:58.030,-37510.13875,29745.07567,2412.848462,23185.28571,18714.53449,-61581.17939,11046.16505,-54477.39267,-0.016,0.088,-0.988,192,0,0,0,0,0,0,0,0,0,0
 2023-06-24 15:07:58.030,-37649.94891,30841.78637,3522.970202,24237.35997,19830.44533,-62647.71523,12154.23043,-55121.61465,-0.016,0.088,-0.988,192,0,0,0,0,0,0,0,0,0,0
 2023-06-24 15:07:58.030,-37480.83561,31774.39055,4446.410173,25177.69786,20749.63847,-63150.00363,13083.45951,-55442.27278,-0.016,0.088,-0.988,192,0,0,0,0,0,0,0,0,0,0
 2023-06-24 15:07:58.030,-37242.05193,31340.34203,3989.518164,24807.86589,20294.24403,-62417.91694,12622.05245,-55011.24174,-0.016,0.088,-0.988,192,0,0,0,0,0,0,0,0,0,0
 2023-06-24 15:07:58.030,-37290.95755,30010.86027,2658.494134,23501.38408,18965.36576,-61354.75622,11297.35396,-54352.71464,-0.016,0.088,-0.988,192,0,0,0,0,0,0,0,0,0,0
 2023-06-24 15:07:58.030,-37569.19206,29865.9092,2538.12999,23298.76552,18841.24653,-61547.9647,11172.3183,-54455.24209,-0.016,0.088,-0.988,192,0,0,0,0,0,0,0,0,0,0
 2023-06-24 15:07:58.030,-37722.43562,30902.71722,3589.064311,24298.38023,19890.50447,-62617.27215,12215.72008,-55101.25221,-0.016,0.088,-0.988,192,0,0,0,0,0,0,0,0,0,0
 2023-06-24 15:07:58.030,-37569.90732,31759.07961,4429.825178,25170.76882,20733.76873,-63149.51189,13062.44887,-55441.46811,-0.016,0.088,-0.988,192,0,0,0,0,0,0,0,0,0,0
 2023-06-24 15:07:58.030,-37334.16347,31316.76094,3960.237379,24791.90675,20275.62502,-62436.5136,12610.20602,-55023.31168,-0.016,0.088,-0.988,192,0,0,0,0,0,0,0,0,0,0
 2023-06-24 15:07:58.030,-37379.73867,29966.53676,2605.229927,23470.2481,18923.27743,-61365.14978,11258.68544,-54360.02366,-0.02,0.092,-0.988,192,255,96,2,224,225,32,0,0,0,0
 2023-06-24 15:07:58.030,-37660.67775,29758.2185,2424.2255,23207.63745,18732.97468,-61541.5274,11078.26216,-54453.36455,-0.02,0.092,-0.988,192,0,0,0,0,0,0,0,0,0,0
 2023-06-24 15:07:58.030,-37816.78233,30787.7175,3470.868286,24175.91502,19767.12284,-62611.34894,12107.85056,-55099.75464,-0.02,0.092,-0.988,192,0,0,0,0,0,0,0,0,0,0
 2023-06-24 15:07:58.030,-37659.09078,31734.00095,4407.115806,25135.16249,20702.54334,-63153.02112,13042.84639,-55444.30678,-0.02,0.092,-0.988,192,0,0,0,0,0,0,0,0,0,0
 2023-06-24 15:07:58.030,-37414.45093,31368.97461,4012.763979,24848.56842,20328.97864,-62446.95186,12654.86481,-55030.77716,-0.02,0.092,-0.988,192,0,0,0,0,0,0,0,0,0,0
 2023-06-24 15:07:58.030,-37457.09806,29993.94,2634.913043,23502.83694,18952.84879,-61365.86504,11272.56587,-54363.7117,-0.02,0.092,-0.988,192,0,0,0,0,0,0,0,0,0,0
 2023-06-24 15:07:58.030,-37736.76309,29787.49928,2457.328434,23230.5927,18758.72389,-61522.26019,11083.71599,-54444.73677,-0.02,0.092,-0.988,192,0,0,0,0,0,0,0,0,0,0
 2023-06-24 15:07:58.030,-37904.91526,30750.43479,3436.983041,24140.30869,19731.98589,-62593.91458,12064.46583,-55091.28333,-0.02,0.092,-0.988,192,0,0,0,0,0,0,0,0,0,0
 2023-06-24 15:07:58.030,-37751.91757,31670.81257,4348.35307,25078.81374,20644.69703,-63157.46911,12972.75132,-55450.11824,-0.02,0.092,-0.988,192,0,0,0,0,0,0,0,0,0,0
 2023-06-24 15:07:58.030,-37504.12613,31314.27989,3969.178077,24789.24689,20267.55604,-62469.81769,12587.78722,-55048.81502,-0.02,0.092,-0.988,192,0,0,0,0,0,0,0,0,0,0
 2023-06-24 15:07:58.030,-37531.19409,29990.92251,2640.702145,23487.10131,18935.95087,-61373.95637,11272.05178,-54370.97602,-0.018,0.098,-0.99,192,255,112,3,16,225,16,0,0,0,0
 2023-06-24 15:07:58.030,-37816.51411,29704.88724,2377.242133,23146.41603,18672.73672,-61516.96283,11013.17388,-54444.96029,-0.018,0.098,-0.99,192,0,0,0,0,0,0,0,0,0,0
 2023-06-24 15:07:58.030,-37983.66046,30705.37367,3397.88984,24095.91813,19691.17161,-62579.83298,12026.19964,-55085.22601,-0.018,0.098,-0.99,192,0,0,0,0,0,0,0,0,0,0
 2023-06-24 15:07:58.030,-37828.27113,31695.86887,4379.287884,25093.02945,20670.44624,-63155.61392,13010.03403,-55451.25818,-0.018,0.098,-0.99,192,0,0,0,0,0,0,0,0,0,0
 2023-06-24 15:07:58.030,-37571.6731,31413.76751,4073.00193,24875.45757,20368.25065,-62477.08201,12700.9094,-55053.50888,-0.018,0.098,-0.99,192,0,0,0,0,0,0,0,0,0,0
 2023-06-24 15:07:58.030,-37596.17062,30053.93208,2704.806948,23557.86694,19005.08481,-61376.03508,11341.14103,-54371.64657,-0.018,0.098,-0.99,192,0,0,0,0,0,0,0,0,0,0
 2023-06-24 15:07:58.030,-37875.79094,29764.38758,2437.927119,23213.58302,18734.96398,-61497.51681,11078.8433,-54431.661,-0.018,0.098,-0.99,192,0,0,0,0,0,0,0,0,0,0
 2023-06-24 15:07:58.030,-38042.13262,30769.59023,3462.486382,24157.18426,19749.84494,-62549.16639,12094.2607,-55063.79069,-0.018,0.098,-0.99,192,0,0,0,0,0,0,0,0,0,0
 2023-06-24 15:07:58.030,-37892.75591,31750.96592,4435.681335,25143.94672,20716.1332,-63141.24175,13063.16412,-55439.88114,-0.018,0.098,-0.99,192,0,0,0,0,0,0,0,0,0,0
 2023-06-24 15:07:58.030,-37648.07137,31398.05423,4055.724031,24861.53243,20347.21766,-62491.18596,12684.72674,-55061.75668,-0.018,0.098,-0.99,192,0,0,0,0,0,0,0,0,0,0
 2023-06-24 15:07:58.030,-37670.19959,30031.42387,2681.069396,23539.04677,18983.02364,-61384.48404,11319.23632,-54377.03334,-0.016,0.102,-0.99,192,255,128,3,48,225,16,0,0,0,0
 2023-06-24 15:07:58.030,-37952.59153,29716.15251,2391.793119,23179.56366,18693.68031,-61487.1456,11027.03196,-54425.20135,-0.016,0.102,-0.99,192,0,0,0,0,0,0,0,0,0,0
 2023-06-24 15:07:58.509,-38131.98663,30666.81691,3362.372918,24073.61109,19661.37673,-62543.15377,11997.18708,-55060.10265,-0.016,0.102,-0.99,192,0,0,0,0,0,0,0,0,0,0
 2023-06-24 15:07:58.509,-37982.45346,31690.50445,4379.354939,25093.67765,20674.82718,-63153.93754,13014.99611,-55447.10075,-0.016,0.102,-0.99,192,0,0,0,0,0,0,0,0,0,0
 2023-06-24 15:07:58.510,-37721.27333,31458.69451,4122.756913,24916.60713,20416.08339,-62508.15094,12755.55942,-55071.03265,-0.016,0.102,-0.99,192,0,0,0,0,0,0,0,0,0,0
 2023-06-24 15:07:58.510,-37736.47252,30089.31489,2744.950681,23586.11954,19040.46762,-61392.44126,11388.83965,-54380.81078,-0.016,0.102,-0.99,192,0,0,0,0,0,0,0,0,0,0
 2023-06-24 15:07:58.510,-38012.67302,29752.45175,2429.768733,23203.41297,18724.48101,-61471.00764,11067.68978,-54415.36658,-0.016,0.102,-0.99,192,0,0,0,0,0,0,0,0,0,0
 2023-06-24 15:07:58.510,-38197.05256,30656.37865,3350.660604,24059.28362,19646.02109,-62521.62904,11972.01901,-55049.91025,-0.016,0.102,-0.99,192,0,0,0,0,0,0,0,0,0,0
 2023-06-24 15:07:58.510,-38057.80119,31648.97491,4332.528035,25057.17725,20627.15091,-63155.07748,12949.95254,-55453.38159,-0.016,0.102,-0.99,192,0,0,0,0,0,0,0,0,0,0
 2023-06-24 15:07:58.510,-37802.54427,31397.62955,4054.718203,24858.22438,20350.72688,-62532.76021,12691.85694,-55093.45145,-0.016,0.102,-0.99,192,0,0,0,0,0,0,0,0,0,0
 2023-06-24 15:07:58.510,-37818.43636,29995.61638,2645.50777,23491.25874,18943.46105,-61415.68707,11280.85837,-54405.01772,-0.018,0.1,-0.986,192,255,112,3,32,225,48,0,0,0,0
 2023-06-24 15:07:58.510,-38091.64174,29659.22262,2332.382182,23106.09348,18628.50262,-61471.96877,10961.60841,-54426.74362,-0.018,0.1,-0.986,192,0,0,0,0,0,0,0,0,0,0
 2023-06-24 15:07:58.510,-38271.41682,30614.8044,3306.940592,23998.71039,19593.38273,-62506.51926,11932.70229,-55048.90442,-0.018,0.1,-0.986,192,0,0,0,0,0,0,0,0,0,0
 2023-06-24 15:07:58.510,-38128.87974,31658.51911,4342.027526,25039.34056,20621.20534,-63153.22228,12974.69592,-55456.55554,-0.018,0.1,-0.986,192,0,0,0,0,0,0,0,0,0,0
 2023-06-24 15:07:58.510,-37871.85703,31426.26213,4082.300256,24872.44008,20368.78709,-62547.57941,12720.89186,-55106.75074,-0.018,0.1,-0.986,192,0,0,0,0,0,0,0,0,0,0
 2023-06-24 15:07:58.510,-37877.69084,30061.17404,2707.824434,23545.17115,18994.75831,-61419.66568,11348.29358,-54411.67854,-0.018,0.1,-0.986,192,0,0,0,0,0,0,0,0,0,0
 2023-06-24 15:07:58.510,-38154.53954,29665.05643,2338.50656,23112.64254,18621.08184,-61463.13983,10970.37029,-54426.38599,-0.018,0.1,-0.986,192,0,0,0,0,0,0,0,0,0,0
 2023-06-24 15:07:58.510,-38343.23297,30593.01145,3284.946476,23991.42373,19572.48385,-62492.70588,11921.92875,-55045.17168,-0.018,0.1,-0.986,192,0,0,0,0,0,0,0,0,0,0
 2023-06-24 15:07:58.510,-38206.64146,31657.91561,4338.607709,25065.60386,20629.87782,-63152.52938,12973.8242,-55462.52346,-0.018,0.1,-0.986,192,0,0,0,0,0,0,0,0,0,0
 2023-06-24 15:07:58.510,-37957.48656,31397.22722,4049.93493,24871.54601,20349.654,-62573.10511,12682.84919,-55130.37653,-0.018,0.1,-0.986,192,0,0,0,0,0,0,0,0,0,0
 2023-06-24 15:07:58.510,-37949.26112,30105.40814,2754.02549,23604.00094,19049.29656,-61432.0709,11387.63265,-54424.84372,-0.018,0.094,-0.986,192,255,112,2,240,225,48,0,0,0,0
 2023-06-24 15:07:58.510,-38214.48692,29734.63741,2408.244003,23184.36929,18702.62101,-61443.42559,11046.58974,-54421.06627,-0.018,0.094,-0.986,192,0,0,0,0,0,0,0,0,0,0
 2023-06-24 15:07:58.510,-38403.33681,30638.5196,3331.438104,24035.07668,19620.09306,-62463.53685,11963.01126,-55035.20281,-0.018,0.094,-0.986,192,0,0,0,0,0,0,0,0,0,0
 2023-06-24 15:07:58.510,-38273.29436,31690.10212,4379.846678,25080.73599,20662.9584,-63142.89578,13018.79591,-55463.59634,-0.018,0.094,-0.986,192,0,0,0,0,0,0,0,0,0,0
 2023-06-24 15:07:58.510,-38012.80713,31529.0578,4192.024969,24983.30474,20487.63132,-62572.61337,12832.94115,-55134.62336,-0.018,0.094,-0.986,192,0,0,0,0,0,0,0,0,0,0
 2023-06-24 15:07:58.510,-38007.2192,30178.99009,2826.847473,23686.36712,19130.50045,-61433.68023,11468.88125,-54431.21397,-0.018,0.094,-0.986,192,0,0,0,0,0,0,0,0,0,0
 2023-06-24 15:07:58.510,-38276.9824,29747.26614,2412.200262,23213.47126,18720.83768,-61428.98636,11061.27483,-54415.45599,-0.018,0.094,-0.986,192,0,0,0,0,0,0,0,0,0,0
 2023-06-24 15:07:58.510,-38477.70107,30583.10963,3265.902789,23983.01947,19574.80843,-62447.89063,11920.81117,-55029.07843,-0.018,0.094,-0.986,192,0,0,0,0,0,0,0,0,0,0
 2023-06-24 15:07:58.510,-38347.56921,31687.2858,4366.614445,25085.94395,20674.17898,-63142.24757,13010.05638,-55464.04337,-0.018,0.094,-0.986,192,0,0,0,0,0,0,0,0,0,0
 2023-06-24 15:07:58.510,-38089.98771,31505.9461,4160.576065,24971.03363,20473.16974,-62596.17211,12806.6555,-55151.38717,-0.018,0.094,-0.986,192,0,0,0,0,0,0,0,0,0,0
 2023-06-24 15:07:58.510,-38079.34828,30139.71807,2784.557972,23632.9241,19094.22357,-61452.63451,11447.71414,-54446.54726,-0.02,0.096,-0.984,192,255,96,3,0,225,64,0,0,0,0
 2023-06-24 15:07:58.510,-38341.48953,29730.94937,2395.659971,23176.47912,18704.65502,-61420.33624,11063.28649,-54413.66785,-0.02,0.096,-0.984,192,0,0,0,0,0,0,0,0,0,0
 2023-06-24 15:07:58.510,-38546.85736,30549.4479,3230.899958,23937.2878,19534.28471,-62431.03742,11892.31269,-55022.59642,-0.02,0.096,-0.984,192,0,0,0,0,0,0,0,0,0,0
 2023-06-24 15:07:58.510,-38431.38825,31611.13341,4287.62338,25003.73423,20589.93525,-63148.57312,12951.94184,-55475.62158,-0.02,0.096,-0.984,192,0,0,0,0,0,0,0,0,0,0
 2023-06-24 15:07:58.510,-38170.54339,31484.24256,4139.744239,24944.16683,20446.23589,-62620.91549,12792.46215,-55173.5154,-0.02,0.096,-0.984,192,0,0,0,0,0,0,0,0,0,0
 2023-06-24 15:07:58.510,-38153.51136,30114.79588,2762.385042,23622.21761,19069.97193,-61471.96877,11418.41101,-54464.38396,-0.02,0.096,-0.984,192,0,0,0,0,0,0,0,0,0,0
 2023-06-24 15:07:58.510,-38417.06078,29663.82708,2334.349136,23137.54238,18645.4676,-61420.00096,10993.21377,-54419.09932,-0.02,0.096,-0.984,192,0,0,0,0,0,0,0,0,0,0
 2023-06-24 15:07:58.510,-38618.67352,30527.05145,3220.238175,23932.28101,19520.13606,-62416.01705,11879.08046,-55016.20382,-0.02,0.096,-0.984,192,0,0,0,0,0,0,0,0,0,0
 2023-06-24 15:07:58.510,-38497.68352,31648.7514,4338.585357,25033.52911,20623.93226,-63141.73348,12996.42181,-55472.38058,-0.02,0.096,-0.984,192,0,0,0,0,0,0,0,0,0,0
 2023-06-24 15:07:58.510,-38230.40136,31565.11117,4226.916042,25018.46403,20524.15407,-62629.34209,12891.32391,-55179.28215,-0.02,0.096,-0.984,192,0,0,0,0,0,0,0,0,0,0
 2023-06-24 15:07:58.510,-38208.72017,30185.65091,2829.999069,23707.80244,19145.87845,-61474.3604,11502.2524,-54469.65897,-0.018,0.096,-0.988,192,255,112,3,0,225,32,0,0,0,0
 2023-06-24 15:07:58.510,-38478.17045,29653.70174,2320.759275,23129.78633,18629.32964,-61406.79108,10997.70647,-54417.17707,-0.018,0.096,-0.988,192,0,0,0,0,0,0,0,0,0,0
 2023-06-24 15:07:58.510,-38682.86773,30514.31096,3203.027332,23926.60367,19509.92131,-62395.65461,11878.85694,-55009.05126,-0.018,0.096,-0.988,192,0,0,0,0,0,0,0,0,0,0
 2023-06-24 15:07:58.510,-38567.19745,31658.69792,4342.474561,25070.38713,20649.83793,-63137.79958,13006.45775,-55473.81109,-0.018,0.096,-0.988,192,0,0,0,0,0,0,0,0,0,0
 2023-06-24 15:07:58.510,-38304.38564,31556.21517,4213.907327,25030.62338,20522.16476,-62650.21862,12883.94784,-55197.00708,-0.018,0.096,-0.988,192,0,0,0,0,0,0,0,0,0,0
 2023-06-24 15:07:58.510,-38266.11945,30234.40006,2879.59759,23756.73041,19190.89486,-61485.82685,11553.99669,-54478.75613,-0.018,0.096,-0.988,192,0,0,0,0,0,0,0,0,0,0
 2023-06-24 15:07:58.510,-38531.52407,29677.17107,2344.385069,23154.08267,18647.61336,-61394.02823,11009.48584,-54411.20916,-0.018,0.096,-0.988,192,0,0,0,0,0,0,0,0,0,0
 2023-06-24 15:07:58.510,-38739.95408,30519.9883,3208.279992,23930.80579,19510.74833,-62373.03464,11876.66647,-54998.27772,-0.018,0.096,-0.988,192,0,0,0,0,0,0,0,0,0,0
 2023-06-24 15:07:58.510,-38641.15937,31601.52216,4281.655464,25008.58456,20588.23652,-63140.52649,12953.46176,-55480.06958,-0.018,0.096,-0.988,192,0,0,0,0,0,0,0,0,0,0
 2023-06-24 15:07:58.510,-38388.49525,31470.94327,4124.098018,24943.56334,20431.46139,-62682.06986,12803.66037,-55222.59983,-0.018,0.096,-0.988,192,0,0,0,0,0,0,0,0,0,0
 2023-06-24 15:07:58.510,-38343.72471,30179.48183,2819.806674,23696.06777,19134.72493,-61512.47013,11522.86071,-54502.69485,-0.024,0.094,-0.992,192,255,64,2,240,225,0,0,0,0,0
 2023-06-24 15:07:58.510,-38600.83683,29653.90291,2315.394856,23122.00792,18628.77084,-61390.18373,11016.21372,-54413.46668,-0.024,0.094,-0.992,192,0,0,0,0,0,0,0,0,0,0
 2023-06-24 15:07:58.510,-38811.09969,30479.19637,3164.42587,23880.00028,19466.64834,-62360.04828,11850.8055,-54993.65091,-0.024,0.094,-0.992,192,0,0,0,0,0,0,0,0,0,0
 2023-06-24 15:07:58.510,-38709.98039,31605.2102,4285.634075,25012.63023,20586.51544,-63138.17956,12957.28391,-55481.29892,-0.024,0.094,-0.992,192,0,0,0,0,0,0,0,0,0,0
 2023-06-24 15:07:58.510,-38434.42809,31633.44045,4287.62338,25109.36858,20595.97022,-62680.34878,12951.62892,-55221.19167,-0.024,0.094,-0.992,192,0,0,0,0,0,0,0,0,0,0
 2023-06-24 15:07:58.510,-38380.20276,30330.93725,2970.010396,23861.40363,19283.83342,-61506.77043,11645.16945,-54499.05151,-0.024,0.094,-0.992,192,0,0,0,0,0,0,0,0,0,0
 2023-06-24 15:07:58.510,-38643.88629,29709.4917,2374.135241,23192.68414,18678.68229,-61368.27902,11037.31376,-54403.00607,-0.024,0.094,-0.992,192,0,0,0,0,0,0,0,0,0,0
 2023-06-24 15:07:58.510,-38853.41154,30552.77831,3236.644356,23961.47239,19532.206,-62326.09598,11896.02308,-54974.87545,-0.024,0.094,-0.992,192,0,0,0,0,0,0,0,0,0,0
 2023-06-24 15:07:58.510,-38759.13188,31672.75717,4345.715564,25083.61937,20647.26748,-63123.00272,13005.47427,-55473.83344,-0.024,0.094,-0.992,192,0,0,0,0,0,0,0,0,0,0
 2023-06-24 15:07:58.510,-38497.05768,31621.95165,4268.311473,25094.54937,20581.10631,-62699.03483,12938.15082,-55237.64255,-0.024,0.094,-0.992,192,0,0,0,0,0,0,0,0,0,0
 2023-06-24 15:07:58.510,-38446.72155,30266.51952,2899.177718,23790.10156,19217.24757,-61533.90545,11580.01412,-54523.81724,-0.024,0.094,-0.992,192,0,0,0,0,0,0,0,0,0,0
 2023-06-24 15:07:58.510,-38696.88227,29709.15642,2368.10027,23188.50436,18679.88928,-61362.24405,11039.34777,-54403.78838,-0.024,0.1,-0.986,192,255,64,3,32,225,48,0,0,0,0
 2023-06-24 15:07:58.510,-38912.97894,30513.17102,3192.432605,23928.9059,19497.58315,-62310.3827,11863.94833,-54969.42162,-0.024,0.1,-0.986,192,0,0,0,0,0,0,0,0,0,0
 2023-06-24 15:07:58.510,-38830.70217,31606.19367,4277.922723,25019.08988,20584.8167,-63122.46628,12948.49967,-55479.91311,-0.024,0.1,-0.986,192,0,0,0,0,0,0,0,0,0,0
 2023-06-24 15:07:58.510,-38564.51524,31608.22768,4250.58654,25083.64172,20568.38817,-62715.23985,12930.48417,-55250.87479,-0.024,0.1,-0.986,192,0,0,0,0,0,0,0,0,0,0
 2023-06-24 15:07:58.510,-38500.20927,30330.84784,2960.19798,23850.8536,19280.65947,-61542.77909,11653.4843,-54528.35465,-0.024,0.1,-0.986,192,0,0,0,0,0,0,0,0,0,0
 2023-06-24 15:07:58.510,-38745.49732,29767.67329,2421.163311,23238.57227,18732.41588,-61344.78734,11104.59251,-54393.61833,-0.024,0.1,-0.986,192,0,0,0,0,0,0,0,0,0,0
 2023-06-24 15:07:58.510,-38973.21689,30477.92232,3151.059526,23899.40159,19459.49578,-62290.31083,11825.41392,-54963.25254,-0.024,0.1,-0.986,192,0,0,0,0,0,0,0,0,0,0
 2023-06-24 15:07:58.510,-38891.3201,31606.90893,4277.430985,25017.32409,20579.94402,-63116.49836,12945.70571,-55482.70708,-0.024,0.1,-0.986,192,0,0,0,0,0,0,0,0,0,0
 2023-06-24 15:07:58.510,-38618.36059,31671.55018,4320.189872,25132.90496,20624.98279,-62723.62175,12996.66768,-55263.16825,-0.024,0.1,-0.986,192,0,0,0,0,0,0,0,0,0,0
 2023-06-24 15:07:58.510,-38554.23344,30335.98874,2971.932646,23838.96248,19275.09389,-61555.29607,11657.2841,-54545.43138,-0.024,0.1,-0.986,192,0,0,0,0,0,0,0,0,0,0
 2023-06-24 15:07:58.510,-38799.81205,29730.34587,2388.708578,23184.07872,18682.10211,-61333.43265,11066.72866,-54394.57946,-0.016,0.1,-0.99,192,255,128,3,32,225,16,0,0,0,0
 2023-06-24 15:07:58.510,-39026.86107,30475.91066,3154.814619,23876.3793,19447.31408,-62265.12042,11832.36531,-54950.5344,-0.016,0.1,-0.99,192,0,0,0,0,0,0,0,0,0,0
 2023-06-24 15:07:58.510,-38954.03909,31602.68445,4274.614665,25009.92566,20575.58543,-63109.34581,12939.00018,-55480.76248,-0.016,0.1,-0.99,192,0,0,0,0,0,0,0,0,0,0
 2023-06-24 15:07:58.511,-38693.37305,31621.10229,4267.640921,25087.70974,20575.58543,-62745.88409,12927.39963,-55280.37909,-0.016,0.1,-0.99,192,0,0,0,0,0,0,0,0,0,0
 2023-06-24 15:07:58.511,-38620.26049,30322.60005,2956.174666,23835.65442,19263.91801,-61572.99865,11623.19769,-54561.09995,-0.016,0.1,-0.99,192,0,0,0,0,0,0,0,0,0,0
 2023-06-24 15:07:58.511,-38862.97808,29690.47036,2344.988566,23156.9437,18648.48508,-61327.73296,11014.11265,-54397.99927,-0.016,0.1,-0.99,192,0,0,0,0,0,0,0,0,0,0
 2023-06-24 15:07:58.511,-39085.445,30453.87184,3131.948785,23849.5125,19425.1188,-62245.31677,11794.16618,-54944.36532,-0.016,0.1,-0.99,192,0,0,0,0,0,0,0,0,0,0
 2023-06-24 15:07:58.511,-39008.84557,31642.98465,4320.5475,25025.32602,20606.02851,-63095.71124,12977.93692,-55474.83927,-0.016,0.1,-0.99,192,0,0,0,0,0,0,0,0,0,0
 2023-06-24 15:07:58.511,-38748.35834,31668.80091,4318.692305,25110.64263,20613.47164,-62752.12023,12996.73474,-55286.63758,-0.016,0.1,-0.99,192,0,0,0,0,0,0,0,0,0,0
 2023-06-24 15:07:58.511,-38667.62384,30369.31519,3003.649772,23869.60672,19301.35719,-61581.55937,11674.80787,-54568.45368,-0.016,0.1,-0.99,192,0,0,0,0,0,0,0,0,0,0
 2023-06-24 15:07:58.511,-38911.81665,29686.11177,2339.847665,23148.11476,18634.17997,-61321.20625,11001.14864,-54395.85351,-0.02,0.094,-0.988,192,255,96,2,240,225,32,0,0,0,0
 2023-06-24 15:07:58.511,-39149.86272,30360.21803,3035.724525,23757.82564,19328.00047,-62237.80659,11703.97689,-54943.4936,-0.02,0.094,-0.988,192,0,0,0,0,0,0,0,0,0,0
 2023-06-24 15:07:58.511,-39078.98534,31554.53879,4228.324202,24934.66734,20519.70607,-63103.42259,12898.2306,-55482.3718,-0.02,0.094,-0.988,192,0,0,0,0,0,0,0,0,0,0
 2023-06-24 15:07:58.511,-38805.89173,31698.39462,4346.319061,25137.48707,20642.93124,-62770.78393,13022.01456,-55296.82997,-0.02,0.094,-0.988,192,0,0,0,0,0,0,0,0,0,0
 2023-06-24 15:07:58.511,-38716.48475,30398.57362,3028.907243,23899.89333,19331.17441,-61599.79839,11711.17416,-54577.30497,-0.02,0.094,-0.988,192,0,0,0,0,0,0,0,0,0,0
 2023-06-24 15:07:58.511,-38959.44821,29669.57148,2323.195615,23135.55308,18626.69213,-61315.17128,11000.94748,-54389.10328,-0.02,0.094,-0.988,192,0,0,0,0,0,0,0,0,0,0
 2023-06-24 15:07:58.511,-39193.58274,30393.09745,3068.514534,23804.49609,19373.55332,-62214.69488,11739.04678,-54924.53932,-0.02,0.094,-0.988,192,0,0,0,0,0,0,0,0,0,0
 2023-06-24 15:07:58.511,-39132.33896,31562.85364,4236.951975,24952.32522,20535.70992,-63097.36527,12900.39872,-55476.38154,-0.02,0.094,-0.988,192,0,0,0,0,0,0,0,0,0,0
 2023-06-24 15:07:58.511,-38871.67291,31655.70279,4309.706904,25090.48135,20606.90023,-62792.08515,12978.62982,-55310.30808,-0.02,0.094,-0.988,192,0,0,0,0,0,0,0,0,0,0
 2023-06-24 15:07:58.511,-38772.05119,30421.50651,3057.1822,23919.67463,19366.1996,-61616.87513,11719.4443,-54587.8997,-0.02,0.094,-0.988,192,0,0,0,0,0,0,0,0,0,0
 2023-06-24 15:07:58.511,-39011.34896,29670.33144,2330.325822,23133.07203,18629.93313,-61309.85156,10984.29543,-54388.00804,-0.018,0.096,-0.99,192,255,112,3,0,225,16,0,0,0,0
 2023-06-24 15:07:58.511,-39250.84791,30342.80602,3030.740086,23740.99478,19329.02865,-62199.00396,11696.31025,-54918.23613,-0.018,0.096,-0.99,192,0,0,0,0,0,0,0,0,0,0
 2023-06-24 15:07:58.511,-39186.0502,31568.84391,4257.448525,24957.53318,20554.53009,-63085.94353,12917.85543,-55469.36309,-0.018,0.096,-0.99,192,0,0,0,0,0,0,0,0,0,0
 2023-06-24 15:07:58.511,-38923.4172,31686.81642,4351.147038,25135.2966,20649.90498,-62797.40486,13011.53159,-55312.5209,-0.018,0.096,-0.99,192,0,0,0,0,0,0,0,0,0,0
 2023-06-24 15:07:58.511,-38830.92568,30370.56689,3013.775112,23875.10525,19317.29398,-61635.87411,11687.3919,-54601.60131,-0.018,0.096,-0.99,192,0,0,0,0,0,0,0,0,0,0
 2023-06-24 15:07:58.511,-39065.73076,29619.83885,2280.637894,23089.97787,18582.97212,-61304.64361,10957.31687,-54386.1305,-0.018,0.096,-0.99,192,0,0,0,0,0,0,0,0,0,0
 2023-06-24 15:07:58.511,-39304.00035,30312.09473,2998.397112,23724.92388,19298.51851,-62177.83686,11666.9177,-54907.73081,-0.018,0.096,-0.99,192,0,0,0,0,0,0,0,0,0,0
 2023-06-24 15:07:58.511,-39246.89165,31535.83038,4222.713914,24929.21352,20517.91793,-63080.4003,12881.28798,-55471.08417,-0.018,0.096,-0.99,192,0,0,0,0,0,0,0,0,0,0
 2023-06-24 15:07:58.511,-38988.34902,31649.13138,4312.165596,25097.4998,20609.29186,-62815.97916,12974.87473,-55331.54223,-0.018,0.096,-0.99,192,0,0,0,0,0,0,0,0,0,0
 2023-06-24 15:07:58.511,-38883.96637,30374.27728,3016.256156,23884.7612,19323.93245,-61653.95667,11687.63777,-54618.96862,-0.018,0.096,-0.99,192,0,0,0,0,0,0,0,0,0,0
 2023-06-24 15:07:58.511,-39109.11549,29627.84077,2290.651475,23101.77959,18596.45022,-61295.09941,10958.90384,-54383.73886,-0.018,0.094,-0.988,192,255,112,2,240,225,32,0,0,0,0
 2023-06-24 15:07:58.511,-39342.84769,30352.30551,3041.647737,23759.61378,19340.65155,-62149.96423,11703.17223,-54888.55301,-0.018,0.094,-0.988,192,0,0,0,0,0,0,0,0,0,0
 2023-06-24 15:07:58.511,-39294.00912,31550.8284,4234.649746,24943.40687,20533.22888,-63066.85514,12898.9235,-55459.39421,-0.018,0.094,-0.988,192,0,0,0,0,0,0,0,0,0,0
 2023-06-24 15:07:58.511,-39029.85621,31736.07966,4397.705722,25181.89999,20697.22363,-62817.7673,13065.89104,-55327.51892,-0.018,0.094,-0.988,192,0,0,0,0,0,0,0,0,0,0
 2023-06-24 15:07:58.511,-38923.12663,30457.06814,3101.215136,23967.75323,19406.76801,-61660.93041,11761.6891,-54622.34373,-0.018,0.094,-0.988,192,0,0,0,0,0,0,0,0,0,0
 2023-06-24 15:07:58.511,-39155.27185,29620.88938,2286.717568,23100.17027,18586.5484,-61289.24326,10949.96315,-54384.45412,-0.018,0.094,-0.988,192,0,0,0,0,0,0,0,0,0,0
 2023-06-24 15:07:58.511,-39404.4938,30248.70518,2939.656727,23663.85891,19235.5313,-62143.63869,11604.31047,-54890.72113,-0.018,0.094,-0.988,192,0,0,0,0,0,0,0,0,0,0
 2023-06-24 15:07:58.511,-39358.73978,31485.74012,4177.719853,24881.82782,20470.57694,-63071.75017,12825.7886,-55466.47971,-0.018,0.094,-0.988,192,0,0,0,0,0,0,0,0,0,0
 2023-06-24 15:07:58.511,-39093.2234,31690.88443,4356.131477,25141.77861,20650.50848,-62843.96354,13005.8766,-55344.99798,-0.018,0.094,-0.988,192,0,0,0,0,0,0,0,0,0,0
 2023-06-24 15:07:58.511,-38977.1955,30440.32668,3085.457156,23947.81547,19387.09848,-61690.03239,11758.20223,-54638.81697,-0.018,0.094,-0.988,192,0,0,0,0,0,0,0,0,0,0
 2023-06-24 15:07:58.511,-39200.1765,29627.63961,2289.310371,23105.0653,18594.70679,-61288.17037,10965.49761,-54379.98377,-0.022,0.092,-0.99,192,255,80,2,224,225,16,0,0,0,0
 2023-06-24 15:07:58.511,-39443.76581,30291.15114,2972.469088,23699.37583,19274.04335,-62120.97402,11644.32009,-54871.34217,-0.022,0.092,-0.99,192,0,0,0,0,0,0,0,0,0,0
 2023-06-24 15:07:58.511,-39399.68817,31531.42709,4210.129882,24926.73247,20508.86548,-63057.71328,12881.19857,-55452.08519,-0.022,0.092,-0.99,192,0,0,0,0,0,0,0,0,0,0
 2023-06-24 15:07:58.511,-39139.20094,31734.69385,4390.083777,25176.60262,20688.79702,-62851.40668,13056.39154,-55346.02616,-0.022,0.092,-0.99,192,0,0,0,0,0,0,0,0,0,0
 2023-06-24 15:07:58.511,-39021.45195,30491.26631,3125.802055,23987.84745,19431.44434,-61704.58337,11799.06121,-54643.86846,-0.022,0.092,-0.99,192,0,0,0,0,0,0,0,0,0,0
 2023-06-24 15:07:58.511,-39240.96843,29642.05648,2298.698103,23103.45597,18598.05955,-61282.15775,10963.06127,-54372.76416,-0.022,0.092,-0.99,192,0,0,0,0,0,0,0,0,0,0
 2023-06-24 15:07:58.511,-39488.93869,30240.14446,2921.976497,23640.90367,19216.71113,-62104.00904,11577.17545,-54858.9146,-0.022,0.092,-0.99,192,0,0,0,0,0,0,0,0,0,0
 2023-06-24 15:07:58.511,-39445.88923,31513.56805,4195.042455,24897.18347,20492.21343,-63048.50436,12846.46396,-55442.541,-0.022,0.092,-0.99,192,0,0,0,0,0,0,0,0,0,0
 2023-06-24 15:07:58.511,-39182.8539,31762.00768,4418.31403,25193.74641,20717.58607,-62861.3085,13075.01055,-55346.22733,-0.022,0.092,-0.99,192,0,0,0,0,0,0,0,0,0,0
 2023-06-24 15:07:58.511,-39060.23223,30527.31967,3162.749489,24023.61024,19466.29071,-61719.40258,11828.20789,-54648.36116,-0.022,0.092,-0.99,192,0,0,0,0,0,0,0,0,0,0
 2023-06-24 15:07:58.511,-39275.65834,29654.14878,2304.129577,23128.7805,18616.36563,-61278.67088,10978.52868,-54366.08098,-0.02,0.094,-0.99,192,255,96,2,240,225,16,0,0,0,0
 2023-06-24 15:07:58.989,-39527.74132,30237.57401,2906.464387,23642.96003,19211.07849,-62090.0392,11578.40479,-54845.95059,-0.02,0.094,-0.99,192,0,0,0,0,0,0,0,0,0,0
 2023-06-24 15:07:58.989,-39495.84538,31488.37763,4160.576065,24866.02513,20455.89184,-63046.93974,12815.90913,-55439.83644,-0.02,0.094,-0.99,192,0,0,0,0,0,0,0,0,0,0
 2023-06-24 15:07:58.989,-39240.99079,31720.34403,4371.643588,25163.70567,20675.98947,-62881.60388,13018.57239,-55361.22535,-0.02,0.094,-0.99,192,0,0,0,0,0,0,0,0,0,0
 2023-06-24 15:07:58.989,-39105.02513,30560.60142,3191.784405,24067.75493,19498.61133,-61736.36755,11849.30794,-54661.16871,-0.02,0.094,-0.99,192,0,0,0,0,0,0,0,0,0,0
 2023-06-24 15:07:58.989,-39322.03821,29613.75917,2262.600036,23088.59206,18564.01784,-61277.55329,10933.13228,-54368.40556,-0.02,0.094,-0.99,192,0,0,0,0,0,0,0,0,0,0
 2023-06-24 15:07:58.989,-39578.68094,30162.98624,2834.782342,23556.34702,19130.29929,-62074.12476,11509.49437,-54840.54146,-0.02,0.094,-0.99,192,0,0,0,0,0,0,0,0,0,0
 2023-06-24 15:07:58.989,-39547.09793,31445.95402,4117.794826,24830.35175,20424.44294,-63038.55783,12786.29306,-55438.7412,-0.02,0.094,-0.99,192,0,0,0,0,0,0,0,0,0,0
 2023-06-24 15:07:58.989,-39285.89544,31746.60733,4401.594925,25179.5307,20701.22459,-62890.23166,13062.203,-55368.9367,-0.02,0.094,-0.99,192,0,0,0,0,0,0,0,0,0,0
 2023-06-24 15:07:58.989,-39152.00849,30550.0514,3186.822317,24038.4518,19487.45781,-61758.78635,11858.65097,-54678.33485,-0.02,0.094,-0.99,192,0,0,0,0,0,0,0,0,0,0
 2023-06-24 15:07:58.989,-39356.4599,29642.41411,2294.473624,23120.01862,18600.04885,-61273.03824,10967.97865,-54368.09264,-0.026,0.096,-0.988,192,255,48,3,0,225,32,0,0,0,0
 2023-06-24 15:07:58.989,-39621.97627,30118.32745,2796.359694,23537.34804,19094.5812,-62061.11605,11458.063,-54834.48414,-0.026,0.096,-0.988,192,0,0,0,0,0,0,0,0,0,0
 2023-06-24 15:07:58.989,-39602.06087,31367.67821,4050.225502,24749.93017,20343.77549,-63037.93198,12720.35542,-55438.00359,-0.026,0.096,-0.988,192,0,0,0,0,0,0,0,0,0,0
 2023-06-24 15:07:58.989,-39333.72817,31750.74241,4410.870899,25179.12837,20708.3995,-62899.39587,13080.53143,-55372.55768,-0.026,0.096,-0.988,192,0,0,0,0,0,0,0,0,0,0
 2023-06-24 15:07:58.989,-39190.16292,30617.12898,3252.469391,24118.71691,19558.3799,-61767.01179,11927.74021,-54682.26876,-0.026,0.096,-0.988,192,0,0,0,0,0,0,0,0,0,0
 2023-06-24 15:07:58.989,-39390.25574,29697.86879,2350.889427,23176.97086,18658.9904,-61256.22973,11019.99116,-54357.3638,-0.026,0.096,-0.988,192,0,0,0,0,0,0,0,0,0,0
 2023-06-24 15:07:58.989,-39659.90718,30145.75304,2824.701706,23558.69395,19126.92417,-62030.65062,11491.12123,-54817.07213,-0.026,0.096,-0.988,192,0,0,0,0,0,0,0,0,0,0
 2023-06-24 15:07:58.989,-39652.41935,31354.04365,4035.182778,24727.869,20325.96115,-63025.23619,12699.16596,-55433.98028,-0.026,0.096,-0.988,192,0,0,0,0,0,0,0,0,0,0
 2023-06-24 15:07:58.989,-39389.1605,31729.82117,4385.054634,25158.11773,20686.29362,-62913.8798,13059.81136,-55384.8735,-0.026,0.096,-0.988,192,0,0,0,0,0,0,0,0,0,0
 2023-06-24 15:07:58.989,-39246.57872,30556.42164,3192.633771,24060.60237,19502.25467,-61795.46556,11866.33997,-54704.35228,-0.026,0.096,-0.988,192,0,0,0,0,0,0,0,0,0,0
 2023-06-24 15:07:58.989,-39437.28381,29644.35871,2300.396836,23121.40442,18605.30151,-61259.78366,10958.00977,-54363.21996,-0.026,0.096,-0.986,192,255,48,3,0,225,48,0,0,0,0
 2023-06-24 15:07:58.989,-39702.59901,30119.69091,2792.537545,23537.37039,19098.80568,-62014.42325,11453.45854,-54809.78546,-0.026,0.096,-0.986,192,0,0,0,0,0,0,0,0,0,0
 2023-06-24 15:07:58.989,-39699.35801,31348.00867,4025.102142,24734.79804,20331.7279,-63014.95439,12686.8725,-55428.5041,-0.026,0.096,-0.986,192,0,0,0,0,0,0,0,0,0,0
 2023-06-24 15:07:58.989,-39442.31295,31719.38291,4378.103242,25145.42194,20678.22464,-62927.53672,13031.17878,-55393.41186,-0.026,0.096,-0.986,192,0,0,0,0,0,0,0,0,0,0
 2023-06-24 15:07:58.989,-39296.9372,30566.167,3204.703713,24058.54601,19510.07778,-61816.85618,11874.83363,-54717.89744,-0.026,0.096,-0.986,192,0,0,0,0,0,0,0,0,0,0
 2023-06-24 15:07:58.989,-39490.99505,29596.95066,2254.754574,23069.52603,18562.14029,-61265.84098,10919.56477,-54367.17622,-0.026,0.096,-0.986,192,0,0,0,0,0,0,0,0,0,0
 2023-06-24 15:07:58.989,-39753.33747,30091.23714,2772.823307,23506.1003,19077.9515,-62000.20754,11435.80066,-54798.7884,-0.026,0.096,-0.986,192,0,0,0,0,0,0,0,0,0,0
 2023-06-24 15:07:58.989,-39754.9021,31311.75414,3996.804833,24709.31705,20299.78726,-63009.56762,12657.07763,-55422.82676,-0.026,0.096,-0.986,192,0,0,0,0,0,0,0,0,0,0
 2023-06-24 15:07:58.989,-39496.98532,31710.28575,4373.521134,25146.89715,20672.592,-62940.7913,13022.41689,-55401.5926,-0.026,0.096,-0.986,192,0,0,0,0,0,0,0,0,0,0
 2023-06-24 15:07:58.989,-39341.7748,30596.02894,3237.71724,24090.53136,19540.4538,-61832.70357,11904.51675,-54728.9392,-0.026,0.096,-0.986,192,0,0,0,0,0,0,0,0,0,0
 2023-06-24 15:07:58.989,-39531.00467,29614.51913,2272.300693,23086.60276,18578.39001,-61260.49891,10935.97095,-54364.91869,-0.024,0.094,-0.984,192,255,64,2,240,225,64,0,0,0,0
 2023-06-24 15:07:58.989,-39802.06428,30049.43938,2732.299594,23455.42889,19029.78349,-61986.01419,11384.79398,-54792.10523,-0.024,0.094,-0.984,192,0,0,0,0,0,0,0,0,0,0
 2023-06-24 15:07:58.989,-39814.80477,31237.03226,3924.027553,24612.04226,20213.37542,-63007.62302,12567.73771,-55424.88312,-0.024,0.094,-0.984,192,0,0,0,0,0,0,0,0,0,0
 2023-06-24 15:07:58.990,-39555.32337,31671.93015,4336.596052,25085.63102,20624.35694,-62956.30341,12981.98259,-55412.00851,-0.024,0.094,-0.984,192,0,0,0,0,0,0,0,0,0,0
 2023-06-24 15:07:58.990,-39391.08275,30622.91808,3268.227371,24103.96476,19561.30797,-61850.69672,11915.84908,-54738.23753,-0.024,0.094,-0.984,192,0,0,0,0,0,0,0,0,0,0
 2023-06-24 15:07:58.990,-39568.77912,29653.07589,2311.751522,23126.54533,18607.78256,-61251.15588,10963.10597,-54358.32493,-0.024,0.094,-0.984,192,0,0,0,0,0,0,0,0,0,0
 2023-06-24 15:07:58.990,-39835.16721,30079.2566,2759.188743,23491.23639,19058.25961,-61955.25819,11418.25454,-54772.5251,-0.024,0.094,-0.984,192,0,0,0,0,0,0,0,0,0,0
 2023-06-24 15:07:58.990,-39846.94658,31310.34598,3994.681417,24699.07995,20294.04286,-62979.28101,12634.12239,-55403.17957,-0.024,0.094,-0.984,192,0,0,0,0,0,0,0,0,0,0
 2023-06-24 15:07:58.990,-39592.62843,31747.12142,4414.380123,25171.05939,20705.06909,-62950.82724,13050.51304,-55405.03477,-0.024,0.094,-0.984,192,0,0,0,0,0,0,0,0,0,0
 2023-06-24 15:07:58.990,-39429.70657,30677.45634,3320.552805,24171.8023,19616.6956,-61859.03393,11966.38637,-54742.81964,-0.024,0.094,-0.984,192,0,0,0,0,0,0,0,0,0,0
 2023-06-24 15:07:58.990,-39609.16872,29661.56955,2315.841891,23140.29165,18618.84667,-61243.28807,10972.67252,-54352.71464,-0.024,0.094,-0.984,192,255,64,2,240,225,64,0,0,0,0
 2023-06-24 15:07:58.990,-39877.76963,30067.94662,2744.54835,23469.21992,19048.89423,-61932.34765,11409.20209,-54757.72825,-0.024,0.094,-0.984,192,0,0,0,0,0,0,0,0,0,0
 2023-06-24 15:07:58.990,-39895.9416,31286.58608,3968.462821,24658.26567,20269.85827,-62965.24411,12625.09228,-55395.13295,-0.024,0.094,-0.984,192,0,0,0,0,0,0,0,0,0,0
 2023-06-24 15:07:58.990,-39640.97525,31743.96983,4408.054579,25165.09147,20710.81349,-62957.84568,13053.06113,-55412.12027,-0.024,0.094,-0.984,192,0,0,0,0,0,0,0,0,0,0
 2023-06-24 15:07:58.990,-39467.14574,30703.54083,3348.80541,24195.49515,19651.9443,-61870.61213,12001.3445,-54752.49794,-0.024,0.094,-0.984,192,0,0,0,0,0,0,0,0,0,0
 2023-06-24 15:07:58.990,-39646.38438,29614.765,2276.10049,23092.79419,18579.66406,-61239.8906,10930.36067,-54354.97217,-0.024,0.094,-0.984,192,0,0,0,0,0,0,0,0,0,0
 2023-06-24 15:07:58.990,-39910.582,30039.31404,2722.12955,23454.13249,19023.4803,-61909.05713,11369.48304,-54746.99941,-0.024,0.094,-0.984,192,0,0,0,0,0,0,0,0,0,0
 2023-06-24 15:07:58.990,-39926.85407,31310.36834,3996.00017,24692.30738,20294.91458,-62941.59596,12656.18356,-55383.17476,-0.024,0.094,-0.984,192,0,0,0,0,0,0,0,0,0,0
 2023-06-24 15:07:58.990,-39677.63211,31760.77834,4424.728981,25200.45193,20733.34405,-62960.28202,13082.1184,-55416.05418,-0.024,0.094,-0.984,192,0,0,0,0,0,0,0,0,0,0
 2023-06-24 15:07:58.990,-39508.92115,30694.48837,3336.37784,24188.70022,19640.5002,-61891.75688,11998.61759,-54769.75349,-0.024,0.094,-0.984,192,0,0,0,0,0,0,0,0,0,0
 2023-06-24 15:07:58.990,-39680.40373,29631.3947,2287.678693,23103.74655,18586.66016,-61235.93435,10952.26538,-54354.48043,-0.022,0.098,-0.988,192,255,80,3,16,225,32,0,0,0,0
 2023-06-24 15:07:58.990,-39943.3273,30058.87181,2740.078001,23481.02164,19039.19358,-61885.14076,11383.83286,-54733.14133,-0.022,0.098,-0.988,192,0,0,0,0,0,0,0,0,0,0
 2023-06-24 15:07:58.990,-39970.03764,31295.68324,3984.399615,24682.89729,20273.88159,-62928.47549,12618.275,-55373.47411,-0.022,0.098,-0.988,192,0,0,0,0,0,0,0,0,0,0
 2023-06-24 15:07:58.990,-39716.65826,31798.0387,4467.13024,25218.35568,20755.76285,-62964.61826,13105.29716,-55412.79082,-0.022,0.098,-0.988,192,0,0,0,0,0,0,0,0,0,0
 2023-06-24 15:07:58.990,-39531.54111,30812.97497,3461.05587,24303.85641,19755.65639,-61896.36134,12106.12948,-54763.62911,-0.022,0.098,-0.988,192,0,0,0,0,0,0,0,0,0,0
 2023-06-24 15:07:58.990,-39693.45715,29735.82205,2397.850442,23213.18069,18687.64534,-61216.60009,11048.06495,-54333.22392,-0.022,0.098,-0.988,192,0,0,0,0,0,0,0,0,0,0
 2023-06-24 15:07:58.990,-39964.09207,30065.175,2753.019661,23482.3851,19041.80873,-61859.43626,11402.13894,-54709.44848,-0.022,0.098,-0.988,192,0,0,0,0,0,0,0,0,0,0
 2023-06-24 15:07:58.990,-39995.83155,31286.2508,3983.773766,24671.14027,20274.39568,-62912.11401,12633.87652,-55356.19621,-0.022,0.098,-0.988,192,0,0,0,0,0,0,0,0,0,0
 2023-06-24 15:07:58.990,-39750.58821,31762.34296,4435.793094,25194.75224,20736.0039,-62973.96129,13099.9998,-55413.88606,-0.022,0.098,-0.988,192,0,0,0,0,0,0,0,0,0,0
 2023-06-24 15:07:58.990,-39567.84035,30763.77878,3410.69739,24255.53194,19713.4116,-61921.21648,12080.40262,-54778.00128,-0.022,0.098,-0.988,192,0,0,0,0,0,0,0,0,0,0
 2023-06-24 15:07:58.990,-39725.19663,29665.9505,2326.056638,23132.87087,18623.36172,-61221.60688,11001.68508,-54337.02372,-0.016,0.096,-0.986,192,255,128,3,0,225,48,0,0,0,0
 2023-06-24 15:07:58.990,-39994.84807,29987.48034,2673.55921,23391.56996,18967.93621,-61844.81822,11340.00109,-54702.6312,-0.016,0.096,-0.986,192,0,0,0,0,0,0,0,0,0,0
 2023-06-24 15:07:58.990,-40022.63129,31291.68228,3989.406406,24668.2569,20282.55406,-62891.23748,12647.84636,-55343.63453,-0.016,0.096,-0.986,192,0,0,0,0,0,0,0,0,0,0
 2023-06-24 15:07:58.990,-39777.72323,31810.93565,4485.235153,25235.81239,20785.78124,-62970.87675,13144.81504,-55410.80152,-0.016,0.096,-0.986,192,0,0,0,0,0,0,0,0,0,0
 2023-06-24 15:07:58.990,-39592.44962,30808.83989,3455.646748,24306.98565,19765.73703,-61928.16787,12123.6309,-54783.38805,-0.016,0.096,-0.986,192,0,0,0,0,0,0,0,0,0,0
 2023-06-24 15:07:58.990,-39748.71066,29672.72308,2335.93611,23164.6774,18643.92533,-61213.31438,11004.16613,-54335.12382,-0.016,0.096,-0.986,192,0,0,0,0,0,0,0,0,0,0
 2023-06-24 15:07:58.990,-40020.32906,29972.99641,2662.517448,23404.04223,18962.84002,-61823.33819,11319.83981,-54691.34357,-0.016,0.096,-0.986,192,0,0,0,0,0,0,0,0,0,0
 2023-06-24 15:07:58.990,-40068.13944,31163.09269,3859.073384,24551.44668,20153.31628,-62889.09172,12512.48419,-55345.40031,-0.016,0.096,-0.986,192,0,0,0,0,0,0,0,0,0,0
 2023-06-24 15:07:58.990,-39819.23042,31741.80171,4418.671658,25167.17019,20711.37228,-62987.26058,13062.82885,-55422.26796,-0.016,0.096,-0.986,192,0,0,0,0,0,0,0,0,0,0
 2023-06-24 15:07:58.990,-39625.46314,30770.10432,3425.404838,24265.2773,19725.70505,-61955.50405,12070.85843,-54801.53767,-0.016,0.096,-0.986,192,0,0,0,0,0,0,0,0,0,0
 2023-06-24 15:07:58.990,-39776.04685,29611.23343,2274.848792,23103.8583,18578.59118,-61220.91397,10917.84369,-54340.91292,-0.018,0.094,-0.99,192,255,112,2,240,225,16,0,0,0,0
 2023-06-24 15:07:58.990,-40042.12201,29922.12384,2608.537985,23352.00737,18911.00632,-61811.26825,11259.55716,-54684.12396,-0.018,0.094,-0.99,192,0,0,0,0,0,0,0,0,0,0
 2023-06-24 15:07:58.990,-40085.66321,31167.11601,3859.743936,24552.9666,20164.08982,-62875.97124,12508.05855,-55336.48197,-0.018,0.094,-0.99,192,0,0,0,0,0,0,0,0,0,0
 2023-06-24 15:07:58.990,-39843.25854,31746.49557,4419.766893,25163.68331,20722.77167,-63000.55987,13072.28363,-55430.11343,-0.018,0.094,-0.99,192,0,0,0,0,0,0,0,0,0,0
 2023-06-24 15:07:58.990,-39641.91403,30822.18389,3475.226876,24304.45991,19773.98482,-61977.67698,12130.13525,-54812.93706,-0.018,0.094,-0.99,192,0,0,0,0,0,0,0,0,0,0
 2023-06-24 15:07:58.990,-39782.32769,29674.9359,2339.40063,23166.39849,18645.33349,-61218.36587,10997.30414,-54335.03441,-0.018,0.094,-0.99,192,0,0,0,0,0,0,0,0,0,0
 2023-06-24 15:07:58.990,-40047.57584,29964.54745,2655.36489,23388.55247,18962.30357,-61790.03409,11322.902,-54666.779,-0.018,0.094,-0.99,192,0,0,0,0,0,0,0,0,0,0
 2023-06-24 15:07:58.990,-40096.83908,31192.17231,3894.567954,24567.49523,20190.01784,-62858.29101,12549.81161,-55321.08162,-0.018,0.094,-0.99,192,0,0,0,0,0,0,0,0,0,0
 2023-06-24 15:07:58.990,-39857.98834,31774.92699,4455.775554,25181.05062,20747.96209,-63003.15267,13109.14166,-55427.92296,-0.018,0.094,-0.99,192,0,0,0,0,0,0,0,0,0,0
 2023-06-24 15:07:58.990,-39654.67687,30840.62408,3496.505737,24328.71155,19801.61158,-61990.81981,12158.03023,-54821.27426,-0.018,0.094,-0.99,192,0,0,0,0,0,0,0,0,0,0
 2023-06-24 15:07:58.990,-39797.07984,29626.52202,2292.081987,23129.65222,18604.27333,-61219.14819,10951.43836,-54338.7895,-0.014,0.094,-0.986,192,255,144,2,240,225,48,0,0,0,0
 2023-06-24 15:07:58.990,-40068.2065,29877.17448,2565.957912,23304.04053,18869.40972,-61781.56278,11231.01398,-54665.05792,-0.014,0.094,-0.986,192,0,0,0,0,0,0,0,0,0,0
 2023-06-24 15:07:58.990,-40127.50568,31063.11334,3761.530371,24429.92025,20054.25335,-62860.88382,12426.42998,-55325.19434,-0.014,0.094,-0.986,192,0,0,0,0,0,0,0,0,0,0
 2023-06-24 15:07:58.990,-39881.30121,31744.3051,4422.605565,25155.72609,20721.58703,-63018.41891,13067.09803,-55434.67318,-0.014,0.094,-0.986,192,0,0,0,0,0,0,0,0,0,0
 2023-06-24 15:07:58.990,-39662.16471,30893.48595,3542.773848,24383.71919,19850.76306,-62014.06562,12188.47331,-54829.56676,-0.014,0.094,-0.986,192,0,0,0,0,0,0,0,0,0,0
 2023-06-24 15:07:58.990,-39793.66002,29692.45967,2349.816543,23172.00877,18653.40247,-61219.66228,10998.80171,-54330.56406,-0.014,0.094,-0.986,192,0,0,0,0,0,0,0,0,0,0
 2023-06-24 15:07:58.990,-40065.85956,29911.66322,2595.596325,23320.15614,18895.53891,-61765.82715,11245.9673,-54647.04241,-0.014,0.094,-0.986,192,0,0,0,0,0,0,0,0,0,0
 2023-06-24 15:07:58.990,-40130.3667,31085.06275,3775.008473,24472.50032,20075.64397,-62847.8304,12414.40474,-55311.38096,-0.014,0.094,-0.986,192,0,0,0,0,0,0,0,0,0,0
 2023-06-24 15:07:58.990,-39899.65199,31696.53943,4370.593056,25121.55028,20668.45693,-63034.73568,13013.87853,-55444.79852,-0.014,0.094,-0.986,192,0,0,0,0,0,0,0,0,0,0
 2023-06-24 15:07:58.990,-39676.22395,30885.28286,3535.397772,24377.14778,19841.64355,-62040.82066,12191.87077,-54848.0293,-0.014,0.094,-0.986,192,0,0,0,0,0,0,0,0,0,0
 2023-06-24 15:07:58.990,-39799.85145,29692.39261,2347.916645,23178.49078,18658.85629,-61223.57383,11018.11362,-54335.57085,-0.012,0.094,-0.99,192,255,160,2,240,225,16,0,0,0,0
 2023-06-24 15:07:58.990,-40075.76139,29865.52922,2550.088173,23285.62269,18852.93649,-61753.0643,11205.51064,-54641.45448,-0.012,0.094,-0.99,192,0,0,0,0,0,0,0,0,0,0
 2023-06-24 15:07:58.990,-40140.93907,31058.68769,3751.561493,24447.77929,20057.5167,-62833.97232,12398.31148,-55301.18856,-0.012,0.094,-0.99,192,0,0,0,0,0,0,0,0,0,0
 2023-06-24 15:07:58.990,-39902.13304,31758.11848,4431.412152,25184.0234,20740.02722,-63030.06417,13086.14172,-55437.19893,-0.012,0.094,-0.99,192,0,0,0,0,0,0,0,0,0,0
 2023-06-24 15:07:58.990,-39684.87408,30898.80567,3549.054688,24387.94367,19857.40153,-62058.85852,12218.98344,-54856.43355,-0.012,0.094,-0.99,192,0,0,0,0,0,0,0,0,0,0
 2023-06-24 15:07:58.990,-39813.24015,29630.03124,2288.908039,23119.16925,18600.69705,-61231.62046,10968.62685,-54339.48241,-0.012,0.094,-0.99,192,0,0,0,0,0,0,0,0,0,0
 2023-06-24 15:07:58.990,-40083.09276,29858.64489,2543.919092,23278.09015,18849.8743,-61735.60759,11208.46107,-54630.21155,-0.012,0.094,-0.99,192,0,0,0,0,0,0,0,0,0,0
 2023-06-24 15:07:58.990,-40154.14895,31030.45744,3725.00762,24409.98249,20027.25244,-62821.92472,12373.54575,-55295.10889,-0.012,0.094,-0.99,192,0,0,0,0,0,0,0,0,0,0
 2023-06-24 15:07:58.990,-39924.68595,31691.80086,4366.480335,25100.89726,20666.93701,-63043.2517,13011.37513,-55447.65955,-0.012,0.094,-0.99,192,0,0,0,0,0,0,0,0,0,0
 2023-06-24 15:07:58.990,-39700.54265,30882.35478,3529.452208,24361.85919,19832.94872,-62084.67479,12180.47138,-54873.10795,-0.012,0.094,-0.99,192,0,0,0,0,0,0,0,0,0,0
 2023-06-24 15:07:58.990,-39811.38495,29682.82606,2339.40063,23152.11572,18639.56674,-61229.49704,10997.59471,-54334.78854,-0.016,0.094,-0.992,192,255,128,2,240,225,0,0,0,0,0
 2023-06-24 15:07:58.990,-40085.32793,29830.6158,2512.24667,23233.54313,18811.04932,-61721.30248,11162.48353,-54618.0075,-0.016,0.094,-0.992,192,0,0,0,0,0,0,0,0,0,0
 2023-06-24 15:07:58.990,-40157.14409,31031.19505,3724.381772,24397.06318,20018.33409,-62803.41748,12350.4117,-55279.97676,-0.016,0.094,-0.992,192,0,0,0,0,0,0,0,0,0,0
 2023-06-24 15:07:58.990,-39935.23597,31690.83973,4366.323872,25096.53867,20657.72809,-63045.57628,12986.51999,-55447.19016,-0.016,0.094,-0.992,192,0,0,0,0,0,0,0,0,0,0
 2023-06-24 15:07:58.990,-39709.81863,30922.61027,3571.451136,24397.3314,19870.45495,-62100.00808,12209.81922,-54880.30522,-0.016,0.094,-0.992,192,0,0,0,0,0,0,0,0,0,0
 2023-06-24 15:07:58.990,-39813.46367,29722.74628,2374.939904,23197.89209,18674.30135,-61225.58549,11022.13693,-54331.36872,-0.016,0.094,-0.992,192,0,0,0,0,0,0,0,0,0,0
 2023-06-24 15:07:58.990,-40088.16661,29851.38057,2528.719905,23254.82199,18822.42636,-61698.77192,11184.32119,-54604.6188,-0.016,0.094,-0.992,192,0,0,0,0,0,0,0,0,0,0
 2023-06-24 15:07:58.990,-40165.10131,31044.51669,3731.422571,24412.97763,20032.48275,-62783.56913,12379.15604,-55267.41508,-0.016,0.094,-0.992,192,0,0,0,0,0,0,0,0,0,0
 2023-06-24 15:07:58.990,-39935.21362,31791.35553,4461.631711,25189.87956,20758.24389,-63037.86493,13097.74227,-55436.72954,-0.016,0.094,-0.992,192,0,0,0,0,0,0,0,0,0,0
 2023-06-24 15:07:58.990,-39710.19861,31004.01533,3652.207989,24471.04746,19946.7191,-62109.99931,12294.17471,-54882.83096,-0.016,0.094,-0.992,192,0,0,0,0,0,0,0,0,0,0
 2023-06-24 15:07:58.991,-39824.97481,29650.37133,2304.062522,23113.20133,18598.90891,-61234.0121,10957.00395,-54338.52128,-0.022,0.092,-0.988,192,255,80,2,224,225,32,0,0,0,0
 2023-06-24 15:07:58.991,-40099.23072,29780.32437,2457.216675,23184.27988,18755.7064,-61688.60187,11109.66636,-54601.53426,-0.022,0.092,-0.988,192,0,0,0,0,0,0,0,0,0,0
 2023-06-24 15:07:58.991,-40177.08184,31003.07655,3692.776405,24379.80764,19994.0601,-62772.10269,12332.93263,-55263.92821,-0.022,0.092,-0.988,192,0,0,0,0,0,0,0,0,0,0
 2023-06-24 15:07:58.991,-39959.50996,31714.30906,4390.351998,25126.33355,20688.34998,-63050.40426,13035.87264,-55451.19112,-0.022,0.092,-0.988,192,0,0,0,0,0,0,0,0,0,0
 2023-06-24 15:07:58.991,-39724.41432,31008.99977,3663.517971,24481.19515,19954.83279,-62130.40645,12302.69072,-54900.42179,-0.022,0.092,-0.988,192,0,0,0,0,0,0,0,0,0,0
 2023-06-24 15:07:58.991,-39824.90776,29710.94456,2369.597837,23186.11272,18661.56085,-61229.96643,11021.1758,-54337.47075,-0.022,0.092,-0.988,192,0,0,0,0,0,0,0,0,0,0
 2023-06-24 15:07:58.991,-40099.70011,29803.25726,2487.033902,23201.20015,18772.29139,-61666.13837,11133.85095,-54587.07268,-0.022,0.092,-0.988,192,0,0,0,0,0,0,0,0,0,0
 2023-06-24 15:07:58.991,-40188.21301,30966.28558,3661.953349,24329.29269,19946.51794,-62755.02595,12291.76072,-55253.73581,-0.022,0.092,-0.988,192,0,0,0,0,0,0,0,0,0,0
 2023-06-24 15:07:58.991,-39974.84326,31676.73578,4355.863256,25073.42697,20643.42298,-63055.32164,12985.60357,-55457.56137,-0.022,0.092,-0.988,192,0,0,0,0,0,0,0,0,0,0
 2023-06-24 15:07:58.991,-39740.46287,30968.85603,3620.289698,24423.41589,19913.50441,-62153.54051,12257.29433,-54921.27596,-0.022,0.092,-0.988,192,0,0,0,0,0,0,0,0,0,0
 2023-06-24 15:07:58.991,-39834.31784,29676.36641,2332.493941,23146.08075,18628.63673,-61238.08011,10970.21383,-54350.45711,-0.022,0.092,-0.988,192,0,0,0,0,0,0,0,0,0,0
 2023-06-24 15:07:59.468,-40111.41242,29740.09123,2424.314907,23159.51415,18717.82019,-61657.26473,11042.27585,-54589.79959,-0.02,0.098,-0.986,192,255,96,3,16,225,48,0,0,0,0
 2023-06-24 15:07:59.468,-40210.36359,30866.39564,3561.549313,24242.2103,19854.09347,-62753.72955,12186.5287,-55259.48021,-0.02,0.098,-0.986,192,0,0,0,0,0,0,0,0,0,0
 2023-06-24 15:07:59.468,-39996.4574,31641.64354,4316.859462,25040.79342,20615.21508,-63070.52083,12948.92436,-55467.79847,-0.02,0.098,-0.986,192,0,0,0,0,0,0,0,0,0,0
 2023-06-24 15:07:59.468,-39757.80782,30963.60337,3614.902927,24430.6355,19913.90674,-62183.89418,12252.62281,-54936.16223,-0.02,0.098,-0.986,192,0,0,0,0,0,0,0,0,0,0
 2023-06-24 15:07:59.469,-39843.12443,29674.31005,2328.180054,23153.23331,18626.62508,-61250.28417,10969.56563,-54351.35118,-0.02,0.098,-0.986,192,0,0,0,0,0,0,0,0,0,0
 2023-06-24 15:07:59.469,-40118.25205,29733.78804,2411.596765,23146.41603,18707.87367,-61649.08399,11064.15821,-54576.79088,-0.02,0.098,-0.986,192,0,0,0,0,0,0,0,0,0,0
 2023-06-24 15:07:59.469,-40213.49284,30915.8377,3609.225584,24277.86133,19903.28966,-62736.25049,12258.68014,-55236.94965,-0.02,0.098,-0.986,192,0,0,0,0,0,0,0,0,0,0
 2023-06-24 15:07:59.469,-40004.74989,31674.27709,4347.816628,25072.71171,20648.49682,-63076.04171,12992.3538,-55459.08129,-0.02,0.098,-0.986,192,0,0,0,0,0,0,0,0,0,0
 2023-06-24 15:07:59.469,-39765.89915,30999.47792,3645.860093,24452.89784,19946.20501,-62204.52484,12298.6227,-54940.78904,-0.02,0.098,-0.986,192,0,0,0,0,0,0,0,0,0,0
 2023-06-24 15:07:59.469,-39848.5559,29678.33336,2329.476455,23143.06326,18631.16248,-61257.68259,10991.80561,-54351.28413,-0.02,0.098,-0.986,192,0,0,0,0,0,0,0,0,0,0
 2023-06-24 15:07:59.469,-40124.37643,29720.55581,2398.85627,23133.54142,18700.96698,-61635.76235,11049.31665,-54565.65971,-0.024,0.1,-0.988,192,255,64,3,32,225,32,0,0,0,0
 2023-06-24 15:07:59.469,-40232.33536,30833.98561,3526.501778,24192.38826,19825.66206,-62731.08724,12167.865,-55231.51818,-0.024,0.1,-0.988,192,0,0,0,0,0,0,0,0,0,0
 2023-06-24 15:07:59.469,-40015.27757,31688.91748,4368.223771,25070.633,20666.35587,-63075.32645,12995.39363,-55455.34855,-0.024,0.1,-0.988,192,0,0,0,0,0,0,0,0,0,0
 2023-06-24 15:07:59.469,-39764.96038,31109.73908,3765.508981,24569.50689,20067.37382,-62206.71531,12382.66526,-54936.92219,-0.024,0.1,-0.988,192,0,0,0,0,0,0,0,0,0,0
 2023-06-24 15:07:59.469,-39845.33725,29750.17187,2407.796968,23228.11165,18714.48978,-61250.30652,11033.33515,-54340.57764,-0.024,0.1,-0.988,192,0,0,0,0,0,0,0,0,0,0
 2023-06-24 15:07:59.469,-40128.82443,29711.57041,2391.949581,23115.12358,18696.54133,-61617.1657,11031.43525,-54550.54993,-0.024,0.1,-0.988,192,0,0,0,0,0,0,0,0,0,0
 2023-06-24 15:07:59.469,-40237.54331,30864.71926,3556.609578,24224.68653,19857.62505,-62706.2768,12185.1876,-55212.27332,-0.024,0.1,-0.988,192,0,0,0,0,0,0,0,0,0,0
 2023-06-24 15:07:59.469,-40034.88005,31648.46082,4326.001325,25040.18993,20631.12952,-63079.93091,12962.40246,-55457.11433,-0.024,0.1,-0.988,192,0,0,0,0,0,0,0,0,0,0
 2023-06-24 15:07:59.469,-39793.3471,31014.56535,3664.367338,24477.03773,19976.96101,-62237.00192,12314.53715,-54956.05528,-0.024,0.1,-0.988,192,0,0,0,0,0,0,0,0,0,0
 2023-06-24 15:07:59.469,-39857.22838,29721.33812,2373.084709,23194.04759,18686.05836,-61257.7273,11030.6753,-54343.39396,-0.024,0.1,-0.988,192,0,0,0,0,0,0,0,0,0,0
 2023-06-24 15:07:59.469,-40130.16553,29723.26037,2401.829052,23128.71344,18707.87367,-61596.13271,11055.46338,-54533.49555,-0.02,0.1,-0.992,192,255,96,3,32,225,0,0,0,0,0
 2023-06-24 15:07:59.469,-40250.77555,30814.98662,3508.866252,24181.16768,19813.01097,-62689.58005,12145.15563,-55199.04109,-0.02,0.1,-0.992,192,0,0,0,0,0,0,0,0,0,0
 2023-06-24 15:07:59.469,-40048.49226,31650.65129,4332.617442,25038.96058,20634.1023,-63079.21566,12973.1313,-55452.55458,-0.02,0.1,-0.992,192,0,0,0,0,0,0,0,0,0,0
 2023-06-24 15:07:59.469,-39799.69499,31094.09286,3746.934682,24537.36508,20049.42537,-62245.49559,12409.68852,-54956.25644,-0.02,0.1,-0.992,192,0,0,0,0,0,0,0,0,0,0
 2023-06-24 15:07:59.469,-39867.28667,29741.25352,2395.950543,23203.36827,18697.25659,-61263.42699,11054.92694,-54341.8964,-0.02,0.1,-0.992,192,0,0,0,0,0,0,0,0,0,0
 2023-06-24 15:07:59.469,-40148.67278,29653.09824,2333.812694,23059.93713,18630.40252,-61591.72941,10983.22254,-54527.1253,-0.02,0.1,-0.992,192,0,0,0,0,0,0,0,0,0,0
 2023-06-24 15:07:59.469,-40265.48299,30792.8584,3485.598086,24146.1425,19781.38325,-62676.50428,12134.76206,-55184.93714,-0.02,0.1,-0.992,192,0,0,0,0,0,0,0,0,0,0
 2023-06-24 15:07:59.469,-40065.21136,31632.83695,4313.327886,25000.29206,20599.85943,-63085.27298,12953.3053,-55450.38646,-0.02,0.1,-0.992,192,0,0,0,0,0,0,0,0,0,0
 2023-06-24 15:07:59.469,-39815.90001,31070.64588,3724.7394,24516.06387,20020.09988,-62268.36142,12379.93835,-54966.51589,-0.02,0.1,-0.992,192,0,0,0,0,0,0,0,0,0,0
 2023-06-24 15:07:59.469,-39871.86877,29771.13781,2423.286727,23258.46532,18735.67924,-61266.44448,11077.47985,-54341.15879,-0.02,0.1,-0.992,192,0,0,0,0,0,0,0,0,0,0
 2023-06-24 15:07:59.469,-40150.30445,29696.81826,2376.102194,23118.11872,18681.61037,-61569.71295,11030.40707,-54513.33428,-0.022,0.098,-0.99,192,255,80,3,16,225,16,0,0,0,0
 2023-06-24 15:07:59.469,-40282.2468,30757.11796,3454.864437,24119.65568,19749.68848,-62657.70646,12099.02163,-55177.20344,-0.022,0.098,-0.99,192,0,0,0,0,0,0,0,0,0,0
 2023-06-24 15:07:59.469,-40085.21617,31638.35783,4322.760322,25025.88481,20621.45121,-63085.65296,12969.13033,-55454.27566,-0.022,0.098,-0.99,192,0,0,0,0,0,0,0,0,0,0
 2023-06-24 15:07:59.469,-39832.46265,31110.18611,3765.173705,24561.21439,20067.7091,-62284.94642,12417.154,-54978.96582,-0.022,0.098,-0.99,192,0,0,0,0,0,0,0,0,0,0
 2023-06-24 15:07:59.469,-39889.79487,29739.97947,2394.855308,23197.57917,18697.14483,-61278.62618,11055.59749,-54350.68063,-0.022,0.098,-0.99,192,0,0,0,0,0,0,0,0,0,0
 2023-06-24 15:07:59.469,-40161.10035,29659.73671,2338.640671,23065.16743,18643.79122,-61560.7499,10997.79588,-54506.74051,-0.022,0.098,-0.99,192,0,0,0,0,0,0,0,0,0,0
 2023-06-24 15:07:59.469,-40285.17488,30792.81369,3488.21324,24154.72557,19790.36865,-62633.99126,12127.5201,-55157.66801,-0.022,0.098,-0.99,192,0,0,0,0,0,0,0,0,0,0
 2023-06-24 15:07:59.469,-40100.9071,31617.30249,4299.335694,24996.35816,20597.53485,-63089.36335,12929.0313,-55451.86167,-0.022,0.098,-0.99,192,0,0,0,0,0,0,0,0,0,0
 2023-06-24 15:07:59.469,-39848.04181,31093.10938,3745.794743,24545.9258,20055.77326,-62306.5829,12386.64387,-54987.81711,-0.022,0.098,-0.99,192,0,0,0,0,0,0,0,0,0,0
 2023-06-24 15:07:59.469,-39887.06796,29812.60029,2462.312873,23290.65183,18778.90751,-61276.52511,11114.87432,-54344.4892,-0.022,0.098,-0.99,192,0,0,0,0,0,0,0,0,0,0
 2023-06-24 15:07:59.469,-40156.20532,29711.16808,2382.338331,23133.89905,18697.77068,-61540.54392,11028.99891,-54491.07194,-0.02,0.098,-0.988,192,255,96,3,16,225,32,0,0,0,0
 2023-06-24 15:07:59.469,-40283.90083,30814.24902,3499.478519,24182.73231,19809.54645,-62613.58411,12151.79409,-55140.88185,-0.02,0.098,-0.988,192,0,0,0,0,0,0,0,0,0,0
 2023-06-24 15:07:59.469,-40089.95474,31720.61225,4393.369483,25099.69027,20697.64831,-63077.51692,13052.39058,-55438.47298,-0.02,0.098,-0.988,192,0,0,0,0,0,0,0,0,0,0
 2023-06-24 15:07:59.469,-39832.95439,31199.36957,3849.976224,24645.16755,20157.31724,-62311.74616,12492.0547,-54984.86668,-0.02,0.098,-0.988,192,0,0,0,0,0,0,0,0,0,0
 2023-06-24 15:07:59.469,-39873.09812,29829.69938,2478.227315,23299.1902,18791.71506,-61279.36378,11134.5215,-54340.75646,-0.02,0.098,-0.988,192,0,0,0,0,0,0,0,0,0,0
 2023-06-24 15:07:59.469,-40141.87785,29703.1438,2376.951561,23120.30919,18686.14777,-61524.16009,11040.19714,-54476.27508,-0.02,0.098,-0.988,192,0,0,0,0,0,0,0,0,0,0
 2023-06-24 15:07:59.469,-40277.44118,30776.40751,3468.476649,24140.17458,19771.88376,-62598.42963,12117.3277,-55125.79443,-0.02,0.098,-0.988,192,0,0,0,0,0,0,0,0,0,0
 2023-06-24 15:07:59.469,-40091.87699,31678.59097,4358.679576,25061.6476,20661.03615,-63085.87648,12998.20995,-55437.4895,-0.02,0.098,-0.988,192,0,0,0,0,0,0,0,0,0,0
 2023-06-24 15:07:59.469,-39836.30715,31151.93917,3804.244555,24599.14531,20106.26586,-62340.4458,12457.32009,-54997.9648,-0.02,0.098,-0.988,192,0,0,0,0,0,0,0,0,0,0
 2023-06-24 15:07:59.469,-39869.96888,29775.18347,2427.824131,23248.63055,18732.21472,-61297.84868,11082.84427,-54348.44546,-0.02,0.098,-0.988,192,0,0,0,0,0,0,0,0,0,0
 2023-06-24 15:07:59.469,-40128.33269,29654.75227,2336.383144,23076.11979,18636.63866,-61519.46622,10979.13217,-54468.04964,-0.018,0.094,-0.988,192,255,112,2,240,225,32,0,0,0,0
 2023-06-24 15:07:59.469,-40264.81244,30698.0423,3396.325218,24073.45463,19691.641,-62590.49476,12029.17242,-55115.55733,-0.018,0.094,-0.988,192,0,0,0,0,0,0,0,0,0,0
 2023-06-24 15:07:59.469,-40083.5845,31579.95273,4263.572903,24968.88786,20556.47469,-63097.20881,12903.46091,-55441.91515,-0.018,0.094,-0.988,192,0,0,0,0,0,0,0,0,0,0
 2023-06-24 15:07:59.470,-39826.83001,31080.68181,3738.865702,24531.57598,20038.2942,-62367.11143,12405.73226,-55014.95212,-0.018,0.094,-0.988,192,0,0,0,0,0,0,0,0,0,0
 2023-06-24 15:07:59.470,-39848.66766,29754.95514,2412.736703,23225.27298,18714.0651,-61306.56586,11084.09596,-54354.94981,-0.018,0.094,-0.988,192,0,0,0,0,0,0,0,0,0,0
 2023-06-24 15:07:59.470,-40109.69133,29601.26455,2287.321065,23017.11118,18583.88854,-61509.45264,10931.83588,-54464.9204,-0.018,0.094,-0.988,192,0,0,0,0,0,0,0,0,0,0
 2023-06-24 15:07:59.470,-40250.37321,30660.96075,3363.66932,24030.36046,19656.36994,-62572.61337,11992.80614,-55108.04714,-0.018,0.094,-0.988,192,0,0,0,0,0,0,0,0,0,0
 2023-06-24 15:07:59.470,-40072.96742,31556.32693,4244.931548,24950.67119,20542.84013,-63098.99695,12881.69031,-55445.60319,-0.018,0.094,-0.988,192,0,0,0,0,0,0,0,0,0,0
 2023-06-24 15:07:59.470,-39801.84076,31140.98682,3803.663409,24604.01799,20111.85379,-62378.53317,12450.86043,-55023.15522,-0.018,0.094,-0.988,192,0,0,0,0,0,0,0,0,0,0
 2023-06-24 15:07:59.470,-39813.59778,29802.02792,2462.40228,23277.66547,18767.61988,-61304.62126,11125.84902,-54357.18499,-0.018,0.094,-0.988,192,0,0,0,0,0,0,0,0,0,0
 2023-06-24 15:07:59.470,-40078.57771,29577.63875,2260.074289,23009.57865,18568.37643,-61492.26415,10916.97197,-54460.74062,-0.018,0.094,-0.994,192,255,112,2,240,224,240,0,0,0,0
 2023-06-24 15:07:59.470,-40224.89223,30617.71013,3313.266136,23995.24587,19618.55079,-62554.79903,11970.45439,-55103.68855,-0.018,0.094,-0.994,192,0,0,0,0,0,0,0,0,0,0
 2023-06-24 15:07:59.470,-40041.89849,31612.3404,4297.212279,25006.93053,20606.56495,-63089.16218,12943.96227,-55444.88793,-0.018,0.094,-0.994,192,0,0,0,0,0,0,0,0,0,0
 2023-06-24 15:07:59.470,-39771.91177,31200.21894,3857.642872,24655.80698,20171.97998,-62386.87037,12510.78546,-55033.77229,-0.018,0.094,-0.994,192,0,0,0,0,0,0,0,0,0,0
 2023-06-24 15:07:59.470,-39789.52495,29799.301,2455.093259,23270.4235,18757.24867,-61313.27138,11100.85977,-54367.66796,-0.018,0.094,-0.994,192,0,0,0,0,0,0,0,0,0,0
 2023-06-24 15:07:59.470,-40053.36494,29574.24129,2254.419298,22987.20455,18548.43867,-61480.12715,10896.22955,-54457.14199,-0.018,0.094,-0.994,192,0,0,0,0,0,0,0,0,0,0
 2023-06-24 15:07:59.470,-40197.35488,30628.41661,3323.95027,23975.66575,19611.42059,-62536.20238,11967.68277,-55094.50198,-0.018,0.094,-0.994,192,0,0,0,0,0,0,0,0,0,0
 2023-06-24 15:07:59.470,-40014.85288,31638.46959,4319.608726,25013.81487,20618.83606,-63087.86578,12966.64929,-55443.77034,-0.018,0.094,-0.994,192,0,0,0,0,0,0,0,0,0,0
 2023-06-24 15:07:59.470,-39745.24614,31235.78057,3887.34834,24686.58533,20196.34339,-62406.13757,12541.4297,-55045.79753,-0.018,0.094,-0.994,192,0,0,0,0,0,0,0,0,0,0
 2023-06-24 15:07:59.470,-39759.32774,29812.33207,2457.998986,23284.01336,18766.16702,-61326.3248,11121.82571,-54377.1898,-0.018,0.094,-0.994,192,0,0,0,0,0,0,0,0,0,0
 2023-06-24 15:07:59.470,-40016.68573,29594.69314,2262.957664,23008.66222,18570.58925,-61468.32543,10926.98555,-54449.92238,-0.016,0.09,-0.992,192,255,128,2,208,225,0,0,0,0,0
 2023-06-24 15:07:59.470,-40174.89137,30582.97552,3271.267208,23945.11091,19570.20397,-62528.02164,11918.75481,-55090.99276,-0.016,0.09,-0.992,192,0,0,0,0,0,0,0,0,0,0
 2023-06-24 15:07:59.470,-40015.41168,31506.30373,4186.213516,24884.77825,20479.83056,-63109.50227,12827.01794,-55462.63521,-0.016,0.09,-0.992,192,0,0,0,0,0,0,0,0,0,0
 2023-06-24 15:07:59.470,-39743.23448,31141.92559,3797.762549,24580.83923,20093.86064,-62442.9956,12434.90129,-55074.47482,-0.016,0.09,-0.992,192,0,0,0,0,0,0,0,0,0,0
 2023-06-24 15:07:59.470,-39744.91087,29754.26224,2403.304267,23227.19523,18705.32557,-61348.29656,11042.56642,-54395.85351,-0.016,0.09,-0.992,192,0,0,0,0,0,0,0,0,0,0
 2023-06-24 15:07:59.470,-39998.37965,29543.5747,2217.449512,22965.92569,18520.09666,-61463.45275,10856.10817,-54449.98943,-0.016,0.09,-0.992,192,0,0,0,0,0,0,0,0,0,0
 2023-06-24 15:07:59.470,-40156.11591,30542.83178,3233.11278,23904.14016,19529.09911,-62511.72722,11868.17281,-55083.192,-0.016,0.09,-0.992,192,0,0,0,0,0,0,0,0,0,0
 2023-06-24 15:07:59.470,-39996.12212,31497.6536,4173.540076,24877.33512,20472.05215,-63109.56932,12811.28231,-55463.28342,-0.016,0.09,-0.992,192,0,0,0,0,0,0,0,0,0,0
 2023-06-24 15:07:59.470,-39725.80012,31136.2259,3786.474918,24586.49422,20094.35238,-62464.38622,12435.48243,-55087.05885,-0.016,0.09,-0.992,192,0,0,0,0,0,0,0,0,0,0
 2023-06-24 15:07:59.470,-39722.04503,29751.71414,2398.565697,23228.02224,18706.71138,-61362.37816,11048.60139,-54404.95067,-0.016,0.09,-0.992,192,0,0,0,0,0,0,0,0,0,0
 2023-06-24 15:07:59.470,-39974.35152,29502.69336,2178.356311,22918.13766,18475.37082,-61459.51885,10820.99358,-54449.85532,-0.016,0.094,-0.984,192,255,128,2,240,225,64,0,0,0,0
 2023-06-24 15:07:59.470,-40130.59022,30516.68024,3213.085617,23870.29962,19503.3052,-62499.83609,11854.65,-55074.45247,-0.016,0.094,-0.984,192,0,0,0,0,0,0,0,0,0,0
 2023-06-24 15:07:59.470,-39966.46136,31525.32506,4213.482644,24885.53821,20500.12594,-63105.61307,12867.94399,-55458.50014,-0.016,0.094,-0.984,192,0,0,0,0,0,0,0,0,0,0
 2023-06-24 15:07:59.470,-39678.90616,31282.65217,3945.351117,24704.802,20234.72133,-62464.98972,12603.18757,-55082.90143,-0.016,0.094,-0.984,192,0,0,0,0,0,0,0,0,0,0
 2023-06-24 15:07:59.470,-39667.32796,29898.63216,2552.882141,23358.48938,18842.02884,-61351.71638,11218.25114,-54393.61833,-0.016,0.094,-0.984,192,0,0,0,0,0,0,0,0,0,0
 2023-06-24 15:07:59.470,-39924.1495,29571.55908,2248.496085,22992.3678,18548.84101,-61431.02037,10908.41125,-54431.88452,-0.016,0.094,-0.984,192,0,0,0,0,0,0,0,0,0,0
 2023-06-24 15:07:59.470,-40084.14329,30556.26518,3251.061231,23934.40442,19552.97077,-62466.73315,11886.07656,-55055.83347,-0.016,0.094,-0.984,192,0,0,0,0,0,0,0,0,0,0
 2023-06-24 15:07:59.470,-39924.93182,31594.86134,4279.576752,24975.34752,20574.19963,-63087.84343,12914.79324,-55447.50308,-0.016,0.094,-0.984,192,0,0,0,0,0,0,0,0,0,0
 2023-06-24 15:07:59.470,-39651.12295,31288.7989,3946.02167,24725.36561,20242.58915,-62475.71855,12603.85813,-55092.33386,-0.016,0.094,-0.984,192,0,0,0,0,0,0,0,0,0,0
 2023-06-24 15:07:59.470,-39639.20947,29865.30571,2513.364257,23338.37281,18813.48566,-61360.29945,11180.47669,-54402.53668,-0.016,0.094,-0.984,192,0,0,0,0,0,0,0,0,0,0
 2023-06-24 15:07:59.470,-39894.80166,29514.91976,2186.53705,22934.85676,18478.67888,-61419.44217,10845.5805,-54425.40251,-0.02,0.106,-0.984,192,255,96,3,80,225,64,0,0,0,0
 2023-06-24 15:07:59.470,-40058.70701,30479.15166,3173.254809,23843.38812,19462.02153,-62449.41055,11822.5529,-55045.08228,-0.02,0.106,-0.984,192,0,0,0,0,0,0,0,0,0,0
 2023-06-24 15:07:59.470,-39910.38083,31484.86841,4173.607132,24854.37987,20457.41176,-63093.67723,12811.59524,-55452.35341,-0.02,0.106,-0.984,192,0,0,0,0,0,0,0,0,0,0
 2023-06-24 15:07:59.470,-39631.3193,31263.54143,3925.323954,24702.49977,20215.52118,-62495.72337,12567.11186,-55103.93442,-0.02,0.106,-0.984,192,0,0,0,0,0,0,0,0,0,0
 2023-06-24 15:07:59.470,-39608.36406,29903.79541,2552.658624,23389.5583,18854.21054,-61367.76493,11201.93436,-54406.11296,-0.02,0.106,-0.984,192,0,0,0,0,0,0,0,0,0,0
 2023-06-24 15:07:59.470,-39866.28084,29519.03248,2188.772224,22946.52438,18487.8878,-61405.07,10847.30158,-54416.79709,-0.02,0.106,-0.984,192,0,0,0,0,0,0,0,0,0,0
 2023-06-24 15:07:59.470,-40035.97528,30469.56277,3158.256788,23833.26278,19450.55508,-62430.52333,11807.73369,-55034.19698,-0.02,0.106,-0.984,192,0,0,0,0,0,0,0,0,0,0
 2023-06-24 15:07:59.470,-39888.61023,31523.89455,4204.34078,24894.16598,20496.57202,-63086.1894,12848.65443,-55447.01135,-0.02,0.106,-0.984,192,0,0,0,0,0,0,0,0,0,0
 2023-06-24 15:07:59.470,-39608.22995,31304.71335,3961.064394,24737.01086,20262.25868,-62505.33462,12605.02042,-55109.90234,-0.02,0.106,-0.984,192,0,0,0,0,0,0,0,0,0,0
 2023-06-24 15:07:59.470,-39579.26209,29912.91492,2558.89476,23387.41253,18866.52635,-61375.0516,11202.85078,-54411.00799,-0.02,0.106,-0.984,192,0,0,0,0,0,0,0,0,0,0
 2023-06-24 15:07:59.470,-39837.44709,29494.51262,2163.291235,22915.85778,18464.9102,-61393.6259,10812.72344,-54410.98564,-0.02,0.104,-0.988,192,255,96,3,64,225,32,0,0,0,0
 2023-06-24 15:07:59.470,-40004.32521,30498.01654,3185.995303,23852.48528,19483.92623,-62405.95876,11832.85705,-55019.42247,-0.02,0.104,-0.988,192,0,0,0,0,0,0,0,0,0,0
 2023-06-24 15:07:59.471,-39855.82022,31596.71653,4275.329921,24960.41655,20571.15979,-63074.49944,12913.87682,-55441.11048,-0.02,0.104,-0.988,192,0,0,0,0,0,0,0,0,0,0
 2023-06-24 15:07:59.471,-39585.1853,31334.79879,3989.853441,24759.07204,20286.15269,-62520.89143,12640.33617,-55122.91105,-0.02,0.104,-0.988,192,0,0,0,0,0,0,0,0,0,0
 2023-06-24 15:07:59.471,-39551.16594,29960.05475,2606.571031,23426.12576,18910.7381,-61384.14876,11262.95462,-54420.10515,-0.02,0.104,-0.988,192,0,0,0,0,0,0,0,0,0,0
 2023-06-24 15:07:59.471,-39799.04679,29570.5756,2240.918844,22991.40668,18538.96153,-61375.67745,10878.39286,-54400.3015,-0.02,0.104,-0.988,192,0,0,0,0,0,0,0,0,0,0
 2023-06-24 15:07:59.471,-39986.24265,30421.03713,3112.569822,23785.89943,19401.73887,-62398.26976,11745.0147,-55015.48857,-0.02,0.104,-0.988,192,0,0,0,0,0,0,0,0,0,0
 2023-06-24 15:07:59.471,-39845.8737,31500.17935,4186.079405,24863.47703,20471.4263,-63086.43527,12817.80902,-55447.7266,-0.02,0.104,-0.988,192,0,0,0,0,0,0,0,0,0,0
 2023-06-24 15:07:59.471,-39565.18049,31322.7512,3984.064339,24749.75136,20277.34611,-62541.67855,12625.02523,-55134.91394,-0.02,0.104,-0.988,192,0,0,0,0,0,0,0,0,0,0
 2023-06-24 15:07:59.471,-39520.477,29980.12662,2629.146293,23447.06934,18927.16663,-61393.60355,11285.26167,-54428.24118,-0.02,0.104,-0.988,192,0,0,0,0,0,0,0,0,0,0
 2023-06-24 15:07:59.471,-39767.01674,29566.6417,2237.163751,22985.48347,18533.06067,-61361.99818,10895.82722,-54396.03232,-0.02,0.094,-0.992,192,255,96,2,240,225,0,0,0,0,0
 2023-06-24 15:07:59.471,-39954.27966,30441.17605,3131.345288,23801.65741,19422.32483,-62374.91219,11775.59188,-55006.05613,-0.02,0.094,-0.992,192,0,0,0,0,0,0,0,0,0,0
 2023-06-24 15:07:59.471,-39819.99038,31528.14138,4208.766426,24887.97455,20493.66629,-63080.35559,12847.6486,-55449.71591,-0.02,0.094,-0.992,192,0,0,0,0,0,0,0,0,0,0
 2023-06-24 15:07:59.471,-39543.74517,31333.21182,3986.90301,24763.49768,20281.1012,-62557.79416,12633.58595,-55151.00719,-0.02,0.094,-0.992,192,0,0,0,0,0,0,0,0,0,0
 2023-06-24 15:07:59.471,-39499.10873,29939.08881,2581.939409,23422.34831,18885.92766,-61414.56949,11237.85362,-54445.87671,-0.02,0.094,-0.992,192,0,0,0,0,0,0,0,0,0,0
 2023-06-24 15:07:59.471,-39744.64264,29492.41155,2157.189209,22929.93938,18459.1211,-61362.8252,10818.31137,-54400.3015,-0.02,0.094,-0.992,192,0,0,0,0,0,0,0,0,0,0
 2023-06-24 15:07:59.471,-39927.92695,30399.89238,3090.531002,23777.45048,19380.50471,-62358.3719,11731.55895,-54995.70727,-0.02,0.094,-0.992,192,0,0,0,0,0,0,0,0,0,0
 2023-06-24 15:07:59.471,-39797.41511,31493.58559,4179.038606,24866.44982,20464.87724,-63080.84733,12813.38338,-55446.98899,-0.02,0.094,-0.992,192,0,0,0,0,0,0,0,0,0,0
 2023-06-24 15:07:59.471,-39504.83078,31421.81413,4082.791994,24844.85803,20373.52566,-62564.74555,12734.99581,-55148.61556,-0.02,0.094,-0.992,192,0,0,0,0,0,0,0,0,0,0
 2023-06-24 15:07:59.471,-39452.97473,30036.56477,2686.031483,23510.14596,18984.87884,-61415.75413,11362.6434,-54439.39471,-0.02,0.094,-0.992,192,0,0,0,0,0,0,0,0,0,0
 2023-06-24 15:07:59.950,-39708.27636,29500.52524,2173.237762,22935.75083,18475.12495,-61351.9399,10834.80696,-54389.05858,-0.022,0.096,-0.986,192,255,80,3,0,225,48,0,0,0,0
 2023-06-24 15:07:59.950,-39903.87647,30349.66801,3045.26872,23722.53224,19334.43777,-62346.8831,11690.09646,-54986.67717,-0.022,0.096,-0.986,192,0,0,0,0,0,0,0,0,0,0
 2023-06-24 15:07:59.950,-39776.40447,31472.44084,4162.922998,24843.44987,20446.90644,-63082.23314,12805.47086,-55446.60901,-0.022,0.096,-0.986,192,0,0,0,0,0,0,0,0,0,0
 2023-06-24 15:07:59.950,-39489.7657,31376.64126,4040.167217,24807.93295,20329.828,-62589.24307,12684.48087,-55162.40658,-0.022,0.096,-0.986,192,0,0,0,0,0,0,0,0,0,0
 2023-06-24 15:07:59.950,-39431.87468,29989.20143,2639.60691,23482.36275,18942.7458,-61439.067,11303.6348,-54453.14103,-0.022,0.096,-0.986,192,0,0,0,0,0,0,0,0,0,0
 2023-06-24 15:07:59.951,-39671.64185,29506.85078,2180.90441,22957.81201,18483.68567,-61342.41806,10839.90316,-54381.41428,-0.022,0.096,-0.986,192,0,0,0,0,0,0,0,0,0,0
 2023-06-24 15:07:59.951,-39854.45676,30435.78928,3133.781628,23821.21519,19424.44824,-62313.98133,11775.27896,-54960.45857,-0.022,0.096,-0.986,192,0,0,0,0,0,0,0,0,0,0
 2023-06-24 15:07:59.951,-39737.31127,31505.58847,4194.707178,24889.04743,20484.2115,-63071.05727,12838.84202,-55435.41079,-0.022,0.096,-0.986,192,0,0,0,0,0,0,0,0,0,0
 2023-06-24 15:07:59.951,-39456.50631,31411.59939,4073.068985,24851.40709,20369.79292,-62600.21777,12726.23393,-55166.36284,-0.022,0.096,-0.986,192,0,0,0,0,0,0,0,0,0,0
 2023-06-24 15:07:59.951,-39388.04291,30094.56755,2742.648452,23578.51995,19039.32769,-61438.95524,11391.47715,-54449.60945,-0.022,0.096,-0.986,192,0,0,0,0,0,0,0,0,0,0
 2023-06-24 15:07:59.951,-39625.75372,29581.70677,2254.978091,23012.30556,18540.57086,-61321.54153,10893.92732,-54363.37642,-0.022,0.092,-0.99,192,255,80,2,224,225,16,0,0,0,0
 2023-06-24 15:07:59.951,-39823.58901,30382.59213,3080.2492,23749.26493,19355.06843,-62292.61306,11715.71156,-54945.10292,-0.022,0.092,-0.99,192,0,0,0,0,0,0,0,0,0,0
 2023-06-24 15:07:59.951,-39709.08102,31487.50591,4179.284475,24848.79194,20448.24755,-63060.44019,12808.22013,-55426.58185,-0.022,0.092,-0.99,192,0,0,0,0,0,0,0,0,0,0
 2023-06-24 15:07:59.951,-39425.97382,31417.20967,4082.412014,24842.57815,20367.02131,-62607.95148,12732.3136,-55168.39685,-0.022,0.092,-0.99,192,0,0,0,0,0,0,0,0,0,0
 2023-06-24 15:07:59.951,-39358.22569,30029.12164,2680.577657,23521.03126,18982.28603,-61452.88038,11332.24503,-54459.19835,-0.022,0.092,-0.99,192,0,0,0,0,0,0,0,0,0,0
 2023-06-24 15:07:59.951,-39599.9598,29455.1959,2131.887034,22894.46716,18422.21837,-61320.40159,10786.23662,-54366.14804,-0.022,0.092,-0.99,192,0,0,0,0,0,0,0,0,0,0
 2023-06-24 15:07:59.951,-39797.54922,30299.48834,3000.073493,23670.85501,19279.8101,-62280.58783,11637.3687,-54938.33034,-0.022,0.092,-0.99,192,0,0,0,0,0,0,0,0,0,0
 2023-06-24 15:07:59.951,-39689.21032,31399.68591,4093.431424,24771.38785,20375.20204,-63066.89984,12734.48172,-55429.8005,-0.022,0.092,-0.99,192,0,0,0,0,0,0,0,0,0,0
 2023-06-24 15:07:59.951,-39405.85725,31344.05242,4012.674572,24774.87472,20297.35092,-62633.56657,12648.27104,-55184.42305,-0.022,0.092,-0.99,192,0,0,0,0,0,0,0,0,0,0
 2023-06-24 15:07:59.951,-39324.4075,30030.93213,2686.702035,23503.70866,18969.47848,-61468.66071,11321.82912,-54466.39561,-0.022,0.092,-0.99,192,0,0,0,0,0,0,0,0,0,0
 2023-06-24 15:07:59.951,-39557.82676,29482.68854,2161.570151,22907.43117,18442.06672,-61309.82921,10792.07042,-54355.77683,-0.016,0.088,-0.988,192,255,128,2,192,225,32,0,0,0,0
 2023-06-24 15:07:59.951,-39754.49976,30314.57577,3013.663353,23679.751,19289.01902,-62257.65494,11634.61943,-54921.09715,-0.016,0.088,-0.988,192,0,0,0,0,0,0,0,0,0,0
 2023-06-24 15:07:59.951,-39642.13754,31488.33293,4182.190202,24839.11363,20451.68971,-63052.14769,12805.26969,-55414.86954,-0.016,0.088,-0.988,192,0,0,0,0,0,0,0,0,0,0
 2023-06-24 15:07:59.951,-39356.61636,31494.68082,4164.420565,24899.70921,20434.90355,-62634.17007,12799.6147,-55175.59411,-0.016,0.088,-0.988,192,0,0,0,0,0,0,0,0,0,0
 2023-06-24 15:07:59.951,-39281.17922,30114.4606,2766.006025,23594.74732,19055.91268,-61474.78509,11420.19915,-54463.48989,-0.016,0.088,-0.988,192,0,0,0,0,0,0,0,0,0,0
 2023-06-24 15:07:59.951,-39508.65293,29547.06157,2223.909166,22989.46208,18510.50776,-61291.27726,10876.56002,-54337.80603,-0.016,0.088,-0.988,192,0,0,0,0,0,0,0,0,0,0
 2023-06-24 15:07:59.951,-39720.07808,30269.31349,2973.631379,23646.78218,19243.66733,-62238.6783,11607.9985,-54904.04277,-0.016,0.088,-0.988,192,0,0,0,0,0,0,0,0,0,0
 2023-06-24 15:07:59.951,-39616.65656,31419.95894,4119.784131,24798.29935,20390.82591,-63050.11368,12745.16585,-55407.89579,-0.016,0.088,-0.988,192,0,0,0,0,0,0,0,0,0,0
 2023-06-24 15:07:59.951,-39332.38707,31423.75874,4102.282715,24859.61018,20376.54315,-62654.30899,12727.32916,-55184.71362,-0.016,0.088,-0.988,192,0,0,0,0,0,0,0,0,0,0
 2023-06-24 15:07:59.951,-39248.43392,30061.71048,2725.772885,23545.41702,19001.0168,-61492.30885,11357.52485,-54471.58122,-0.016,0.088,-0.988,192,0,0,0,0,0,0,0,0,0,0
 2023-06-24 15:07:59.951,-39483.26134,29396.2767,2077.773461,22840.30889,18352.27976,-61298.25101,10728.14443,-54343.59513,-0.02,0.09,-0.992,192,255,96,2,208,225,0,0,0,0,0
 2023-06-24 15:07:59.951,-39693.61361,30184.04158,2887.018369,23562.62786,19160.16122,-62231.95043,11537.38934,-54899.79594,-0.02,0.09,-0.992,192,0,0,0,0,0,0,0,0,0,0
 2023-06-24 15:07:59.951,-39599.84804,31336.98926,4037.50736,24707.23834,20308.39268,-63059.61318,12690.00175,-55412.79082,-0.02,0.09,-0.992,192,0,0,0,0,0,0,0,0,0,0
 2023-06-24 15:07:59.951,-39320.54065,31343.47127,4016.139092,24767.54335,20291.78533,-62688.90949,12670.33221,-55203.98083,-0.02,0.09,-0.992,192,0,0,0,0,0,0,0,0,0,0
 2023-06-24 15:07:59.951,-39226.61861,30028.83107,2683.013997,23513.36461,18972.65243,-61523.91422,11333.18381,-54487.83094,-0.02,0.09,-0.992,192,0,0,0,0,0,0,0,0,0,0
 2023-06-24 15:07:59.951,-39448.21381,29417.08617,2095.498394,22862.54887,18379.05715,-61299.3686,10736.23577,-54338.52128,-0.02,0.09,-0.992,192,0,0,0,0,0,0,0,0,0,0
 2023-06-24 15:07:59.951,-39656.06268,30197.11735,2900.764692,23571.30034,19173.4158,-62217.55591,11538.95396,-54885.08849,-0.02,0.09,-0.992,192,0,0,0,0,0,0,0,0,0,0
 2023-06-24 15:07:59.951,-39563.05707,31377.60238,4077.047596,24736.98851,20350.54807,-63054.24876,12715.16981,-55405.32534,-0.02,0.09,-0.992,192,0,0,0,0,0,0,0,0,0,0
 2023-06-24 15:07:59.951,-39286.14131,31381.33513,4051.566607,24811.12925,20335.77357,-62702.16408,12687.54306,-55210.90987,-0.02,0.09,-0.992,192,0,0,0,0,0,0,0,0,0,0
 2023-06-24 15:07:59.951,-39192.93454,30033.7261,2687.506698,23514.4375,18976.42988,-61541.32623,11337.09536,-54500.79495,-0.02,0.09,-0.992,192,0,0,0,0,0,0,0,0,0,0
 2023-06-24 15:07:59.951,-39407.66775,29434.65465,2110.988153,22873.30006,18400.00074,-61291.23256,10771.50682,-54336.10729,-0.02,0.094,-0.994,192,255,96,2,240,224,240,0,0,0,0
 2023-06-24 15:07:59.951,-39621.7304,30172.30692,2870.388671,23552.63663,19151.89107,-62203.54136,11504.68874,-54877.13127,-0.02,0.094,-0.994,192,0,0,0,0,0,0,0,0,0,0
 2023-06-24 15:07:59.951,-39533.88805,31340.85612,4035.33924,24706.90307,20311.05254,-63056.61804,12667.65,-55402.93371,-0.02,0.094,-0.994,192,0,0,0,0,0,0,0,0,0,0
 2023-06-24 15:07:59.951,-39240.43199,31465.48944,4135.497407,24886.52168,20418.72089,-62708.8696,12780.57102,-55206.26071,-0.02,0.094,-0.994,192,0,0,0,0,0,0,0,0,0,0
 2023-06-24 15:07:59.951,-39127.26511,30204.89576,2858.698709,23685.38364,19148.02422,-61535.58183,11504.77815,-54485.68517,-0.02,0.094,-0.994,192,0,0,0,0,0,0,0,0,0,0
 2023-06-24 15:07:59.951,-39349.93319,29482.59914,2153.255302,22931.10167,18441.97732,-61273.99937,10798.77595,-54314.31434,-0.02,0.094,-0.994,192,0,0,0,0,0,0,0,0,0,0
 2023-06-24 15:07:59.951,-39567.54977,30207.26504,2899.20007,23592.44509,19183.87642,-62174.46174,11536.74114,-54847.85048,-0.02,0.094,-0.994,192,0,0,0,0,0,0,0,0,0,0
 2023-06-24 15:07:59.952,-39495.35364,31318.14674,4012.406351,24683.34433,20282.82229,-63048.68317,12636.1564,-55391.66843,-0.02,0.094,-0.994,192,0,0,0,0,0,0,0,0,0,0
 2023-06-24 15:07:59.952,-39211.53119,31414.16984,4090.548049,24823.10978,20360.20402,-62729.81319,12715.99683,-55214.5085,-0.02,0.094,-0.994,192,0,0,0,0,0,0,0,0,0,0
 2023-06-24 15:07:59.952,-39102.99112,30102.41301,2761.558027,23573.22259,19040.1547,-61568.93063,11398.67442,-54502.22546,-0.02,0.094,-0.994,192,0,0,0,0,0,0,0,0,0,0
 2023-06-24 15:07:59.952,-39320.6077,29394.44386,2073.52663,22828.88714,18351.58686,-61284.19176,10712.3194,-54316.86244,-0.018,0.098,-0.992,192,255,112,3,16,225,0,0,0,0,0
 2023-06-24 15:07:59.952,-39529.86473,30181.6723,2881.385729,23554.60358,19159.3342,-62162.59297,11516.51281,-54835.48997,-0.018,0.098,-0.992,192,0,0,0,0,0,0,0,0,0,0
 2023-06-24 15:07:59.952,-39446.51508,31396.98135,4093.900811,24756.52394,20368.89885,-63032.83579,12722.52354,-55375.41871,-0.018,0.098,-0.992,192,0,0,0,0,0,0,0,0,0,0
 2023-06-24 15:07:59.952,-39163.92197,31500.71579,4175.372919,24911.86856,20451.80147,-62733.27771,12812.22109,-55213.52502,-0.018,0.098,-0.992,192,0,0,0,0,0,0,0,0,0,0
 2023-06-24 15:07:59.952,-39045.61419,30248.63812,2906.263221,23721.41465,19188.61499,-61567.96951,11549.66045,-54498.44801,-0.018,0.098,-0.992,192,0,0,0,0,0,0,0,0,0,0
 2023-06-24 15:07:59.952,-39265.80122,29468.29402,2145.275729,22912.52737,18429.99678,-61267.04797,10790.93048,-54304.21135,-0.018,0.098,-0.992,192,0,0,0,0,0,0,0,0,0,0
 2023-06-24 15:07:59.952,-39491.41973,30145.26131,2844.23713,23522.8194,19123.92904,-62148.62313,11496.03862,-54827.04101,-0.018,0.098,-0.992,192,0,0,0,0,0,0,0,0,0,0
 2023-06-24 15:07:59.952,-39424.49861,31306.27797,4006.192566,24673.93424,20282.30819,-63041.82119,12644.4936,-55381.16311,-0.018,0.098,-0.992,192,0,0,0,0,0,0,0,0,0,0
 2023-06-24 15:07:59.952,-39145.0571,31431.91712,4109.39057,24865.26517,20391.02708,-62765.2407,12734.59348,-55231.92051,-0.018,0.098,-0.992,192,0,0,0,0,0,0,0,0,0,0
 2023-06-24 15:07:59.952,-39019.03796,30215.60224,2875.618979,23696.44775,19152.80749,-61601.65359,11502.78884,-54516.39646,-0.018,0.098,-0.992,192,0,0,0,0,0,0,0,0,0,0
 2023-06-24 15:07:59.952,-39220.87422,29521.1559,2198.092901,22959.6672,18475.81786,-61265.95274,10829.04021,-54296.34354,-0.014,0.098,-0.992,192,255,144,3,16,225,0,0,0,0,0
 2023-06-24 15:07:59.952,-39441.93297,30194.5022,2890.23702,23572.7085,19169.83952,-62126.4502,11528.91803,-54806.07507,-0.014,0.098,-0.992,192,0,0,0,0,0,0,0,0,0,0
 2023-06-24 15:07:59.952,-39371.77084,31403.55276,4099.511099,24774.13711,20375.98436,-63022.75515,12731.57599,-55360.71126,-0.014,0.098,-0.992,192,0,0,0,0,0,0,0,0,0,0
 2023-06-24 15:07:59.952,-39100.59948,31482.94616,4159.078498,24918.08235,20438.36807,-62770.82864,12793.15505,-55229.01478,-0.014,0.098,-0.992,192,0,0,0,0,0,0,0,0,0,0
 2023-06-24 15:07:59.952,-38983.29752,30184.60038,2846.785229,23666.38466,19124.80076,-61621.83721,11493.02113,-54527.39352,-0.014,0.098,-0.992,192,0,0,0,0,0,0,0,0,0,0
 2023-06-24 15:07:59.952,-39183.92678,29462.86255,2144.627529,22901.3962,18419.60322,-61264.34341,10782.95091,-54297.30467,-0.014,0.098,-0.992,192,0,0,0,0,0,0,0,0,0,0
 2023-06-24 15:07:59.952,-39402.14686,30164.23794,2868.153497,23531.26836,19134.94845,-62107.58532,11491.07653,-54796.95556,-0.014,0.098,-0.992,192,0,0,0,0,0,0,0,0,0,0
 2023-06-24 15:07:59.952,-39338.22088,31367.83467,4069.984444,24727.71254,20339.21574,-63016.02727,12688.05715,-55358.72195,-0.014,0.098,-0.992,192,0,0,0,0,0,0,0,0,0,0
 2023-06-24 15:07:59.952,-39066.06603,31495.88782,4175.730547,24916.92006,20453.3661,-62783.1221,12797.13366,-55235.45208,-0.014,0.098,-0.992,192,0,0,0,0,0,0,0,0,0,0
 2023-06-24 15:07:59.952,-38944.91958,30236.1435,2902.619887,23707.57892,19178.22143,-61636.25409,11533.34368,-54533.94258,-0.014,0.098,-0.992,192,0,0,0,0,0,0,0,0,0,0
 2023-06-24 15:07:59.952,-39151.91909,29449.11622,2133.339898,22898.08815,18413.5459,-61263.24818,10767.93054,-54295.60593,-0.012,0.102,-0.994,192,255,160,3,48,224,240,0,0,0,0
 2023-06-24 15:07:59.952,-39381.06917,30100.42371,2808.22847,23497.33841,19088.74739,-62100.09749,11437.32058,-54791.6582,-0.012,0.102,-0.994,192,0,0,0,0,0,0,0,0,0,0
 2023-06-24 15:07:59.952,-39334.57754,31251.11386,3960.416193,24636.42801,20237.33649,-63027.53842,12585.73086,-55365.06985,-0.012,0.102,-0.994,192,0,0,0,0,0,0,0,0,0,0
 2023-06-24 15:07:59.952,-39055.31485,31476.4418,4160.620768,24911.0639,20445.85591,-62805.51854,12801.08992,-55246.96323,-0.012,0.102,-0.994,192,0,0,0,0,0,0,0,0,0,0
 2023-06-24 15:07:59.952,-38923.59602,30255.94714,2917.193224,23745.46513,19211.74904,-61660.01399,11574.15796,-54547.97948,-0.012,0.102,-0.994,192,0,0,0,0,0,0,0,0,0,0
 2023-06-24 15:07:59.952,-39124.94053,29452.31252,2132.60229,22909.62165,18421.50312,-61265.88568,10781.00631,-54297.30467,-0.012,0.102,-0.994,192,0,0,0,0,0,0,0,0,0,0
 2023-06-24 15:07:59.952,-39355.02939,30059.72118,2762.653263,23454.42306,19043.32865,-62091.31325,11398.51795,-54786.49494,-0.012,0.102,-0.994,192,0,0,0,0,0,0,0,0,0,0
 2023-06-24 15:07:59.952,-39312.38226,31215.08285,3913.857509,24593.78089,20193.81764,-63028.43249,12561.09924,-55365.42748,-0.012,0.102,-0.994,192,0,0,0,0,0,0,0,0,0,0
 2023-06-24 15:07:59.952,-39037.56756,31438.0862,4112.653925,24869.3779,20401.62181,-62829.07728,12760.05212,-55262.07301,-0.012,0.102,-0.994,192,0,0,0,0,0,0,0,0,0,0
 2023-06-24 15:07:59.952,-38906.00519,30218.01623,2874.501392,23710.14937,19174.7122,-61693.02752,11530.23678,-54569.57126,-0.012,0.102,-0.994,192,0,0,0,0,0,0,0,0,0,0
 2023-06-24 15:07:59.952,-39106.03095,29386.0843,2062.753089,22845.0251,18358.73942,-61278.73794,10716.34271,-54305.19483,-0.012,0.102,-0.994,192,0,0,0,0,0,0,0,0,0,0
 2023-06-24 15:07:59.952,-39331.47065,30040.27516,2744.68246,23429.88085,19025.31314,-62083.69131,11374.62394,-54779.96824,-0.01,0.1,-0.99,192,255,176,3,32,225,16,0,0,0,0
 2023-06-24 15:07:59.952,-39287.79534,31238.19455,3947.161609,24608.62244,20222.60669,-63023.82803,12575.85139,-55359.45956,-0.01,0.1,-0.99,192,0,0,0,0,0,0,0,0,0,0
 2023-06-24 15:07:59.952,-39016.35575,31446.9375,4136.972623,24866.15924,20416.37396,-62846.08696,12780.83924,-55269.6279,-0.01,0.1,-0.99,192,0,0,0,0,0,0,0,0,0,0
 2023-06-24 15:07:59.952,-38869.84007,30306.97618,2974.816021,23789.2522,19260.78877,-61705.27628,11620.04609,-54571.94055,-0.01,0.1,-0.99,192,0,0,0,0,0,0,0,0,0,0
 2023-06-24 15:07:59.952,-39066.17779,29451.12788,2137.676136,22910.47101,18422.24072,-61269.55137,10776.3795,-54293.43781,-0.01,0.1,-0.99,192,0,0,0,0,0,0,0,0,0,0
 2023-06-24 15:07:59.952,-39304.11211,29989.492,2699.241364,23379.90235,18976.38517,-62072.89542,11331.46272,-54769.17234,-0.01,0.1,-0.99,192,0,0,0,0,0,0,0,0,0,0
 2023-06-24 15:07:59.952,-39261.53204,31225.16349,3936.700992,24595.9043,20210.51439,-63019.60355,12569.07881,-55353.17872,-0.01,0.1,-0.99,192,0,0,0,0,0,0,0,0,0,0
 2023-06-24 15:07:59.952,-38981.46468,31524.36394,4213.549699,24947.87722,20489.263,-62852.74778,12847.87212,-55269.40438,-0.01,0.1,-0.99,192,0,0,0,0,0,0,0,0,0,0
 2023-06-24 15:07:59.952,-38836.42421,30339.72148,3007.516623,23824.18797,19286.29211,-61722.42006,11648.2987,-54581.52945,-0.01,0.1,-0.99,192,0,0,0,0,0,0,0,0,0,0
 2023-06-24 15:07:59.952,-39032.82899,29440.10847,2121.694639,22904.97248,18405.02988,-61267.51736,10768.82461,-54293.10254,-0.01,0.1,-0.99,192,0,0,0,0,0,0,0,0,0,0
 2023-06-24 15:07:59.952,-39268.86341,29996.68926,2696.447396,23401.40473,18977.52511,-62054.00819,11340.40342,-54757.61649,-0.014,0.106,-0.984,192,255,144,3,80,225,64,0,0,0,0
 2023-06-24 15:07:59.952,-39233.88293,31215.12755,3914.259841,24594.25027,20198.28799,-63012.00396,12556.04774,-55348.10488,-0.014,0.106,-0.984,192,0,0,0,0,0,0,0,0,0,0
 2023-06-24 15:07:59.952,-38953.65911,31572.01786,4253.134638,24987.97625,20532.46892,-62861.33085,12871.67673,-55273.04772,-0.014,0.106,-0.984,192,0,0,0,0,0,0,0,0,0,0
 2023-06-24 15:07:59.952,-38798.29214,30452.26252,3118.247165,23917.50651,19388.30547,-61731.58428,11735.53756,-54583.96579,-0.014,0.106,-0.984,192,0,0,0,0,0,0,0,0,0,0
 2023-06-24 15:07:59.952,-38996.79798,29499.29589,2180.323265,22948.69249,18455.20955,-61258.82253,10814.15395,-54284.2736,-0.014,0.106,-0.984,192,0,0,0,0,0,0,0,0,0,0
 2023-06-24 15:07:59.952,-39248.52332,29948.85653,2651.676852,23338.8869,18929.11123,-62044.91103,11283.18295,-54749.99455,-0.014,0.106,-0.984,192,0,0,0,0,0,0,0,0,0,0
 2023-06-24 15:07:59.952,-39217.32029,31184.77388,3889.292942,24553.16777,20166.54851,-63011.31106,12519.59205,-55344.28273,-0.014,0.106,-0.984,192,0,0,0,0,0,0,0,0,0,0
 2023-06-24 15:07:59.952,-38942.32678,31512.96455,4193.656646,24928.40885,20471.53806,-62886.99065,12824.38044,-55285.11766,-0.014,0.106,-0.984,192,0,0,0,0,0,0,0,0,0,0
 2023-06-24 15:07:59.952,-38783.60704,30374.43374,3033.534054,23848.14904,19317.00341,-61766.25183,11683.5921,-54604.08236,-0.014,0.106,-0.984,192,0,0,0,0,0,0,0,0,0,0
 2023-06-24 15:07:59.952,-38963.60564,29506.89548,2184.927724,22942.54576,18459.90341,-61258.80018,10841.33367,-54281.99372,-0.014,0.106,-0.984,192,0,0,0,0,0,0,0,0,0,0
 2023-06-24 15:07:59.953,-39198.00838,30058.46948,2757.221789,23434.32885,19029.11294,-62012.43395,11393.48881,-54726.14523,-0.02,0.098,-0.984,192,255,96,3,16,225,64,0,0,0,0
 2023-06-24 15:07:59.953,-39174.98609,31254.22075,3952.995414,24622.03349,20224.7301,-62989.58516,12564.80963,-55327.98831,-0.02,0.098,-0.984,192,0,0,0,0,0,0,0,0,0,0
 2023-06-24 15:07:59.953,-38910.07321,31555.99166,4236.616699,24967.39029,20509.20075,-62890.41047,12850.68844,-55285.96703,-0.02,0.098,-0.984,192,0,0,0,0,0,0,0,0,0,0
 2023-06-24 15:07:59.953,-38752.64987,30414.10809,3074.884781,23884.64944,19349.97223,-61782.18863,11699.99828,-54613.82772,-0.02,0.098,-0.984,192,0,0,0,0,0,0,0,0,0,0
 2023-06-24 15:07:59.953,-38933.74371,29486.95773,2163.246532,22934.36503,18436.94817,-61256.65441,10791.82455,-54282.17253,-0.02,0.098,-0.984,192,0,0,0,0,0,0,0,0,0,0
 2023-06-24 15:07:59.953,-39172.23682,30002.45601,2701.655352,23390.78765,18977.54746,-61999.26877,11335.12841,-54718.21037,-0.02,0.098,-0.984,192,0,0,0,0,0,0,0,0,0,0
 2023-06-24 15:07:59.953,-39153.95309,31188.90896,3890.16466,24564.70127,20167.0179,-62983.46078,12519.52499,-55323.20503,-0.02,0.098,-0.984,192,0,0,0,0,0,0,0,0,0,0
 2023-06-24 15:07:59.953,-38888.59318,31510.66232,4189.812146,24935.11438,20467.51475,-62900.42405,12827.46498,-55291.13028,-0.02,0.098,-0.984,192,0,0,0,0,0,0,0,0,0,0
 2023-06-24 15:07:59.953,-38717.95997,30444.01472,3103.785587,23922.37919,19386.29381,-61795.08558,11761.35382,-54619.28154,-0.02,0.098,-0.984,192,0,0,0,0,0,0,0,0,0,0
 2023-06-24 15:07:59.953,-38895.67869,29493.41738,2166.755756,22957.1191,18456.79652,-61251.44646,10827.16266,-54274.66235,-0.02,0.098,-0.984,192,0,0,0,0,0,0,0,0,0,0
 2023-06-24 15:07:59.953,-39146.59937,29914.43484,2609.588517,23326.88401,18901.59624,-61992.29503,11263.51342,-54710.65548,-0.016,0.098,-0.99,192,255,128,3,16,225,16,0,0,0,0
 2023-06-24 15:07:59.953,-39133.92593,31111.3484,3811.195947,24489.30883,20094.39708,-62986.52297,12459.84584,-55322.1545,-0.016,0.098,-0.99,192,0,0,0,0,0,0,0,0,0,0
 2023-06-24 15:07:59.953,-38864.47565,31517.05492,4199.311638,24931.02401,20479.74115,-62919.17716,12858.5339,-55298.37224,-0.016,0.098,-0.99,192,0,0,0,0,0,0,0,0,0,0
 2023-06-24 15:07:59.953,-38689.84147,30462.72313,3124.572709,23936.28197,19408.13147,-61823.69582,11771.3674,-54634.43603,-0.016,0.098,-0.99,192,0,0,0,0,0,0,0,0,0,0
 2023-06-24 15:07:59.953,-38863.64864,29472.5632,2148.382622,22916.7742,18426.95694,-61260.90124,10789.63408,-54279.40092,-0.016,0.098,-0.99,192,0,0,0,0,0,0,0,0,0,0
 2023-06-24 15:07:59.953,-39101.00181,29978.27142,2678.878925,23353.32612,18950.99359,-61972.0667,11305.04296,-54695.5904,-0.016,0.098,-0.99,192,0,0,0,0,0,0,0,0,0,0
 2023-06-24 15:07:59.953,-39092.55285,31173.88858,3875.144288,24529.47492,20144.12971,-62971.63671,12492.54644,-55310.88922,-0.016,0.098,-0.99,192,0,0,0,0,0,0,0,0,0,0
 2023-06-24 15:07:59.953,-38840.6934,31483.16967,4162.028928,24890.47794,20436.37877,-62935.91862,12802.94511,-55309.10108,-0.016,0.098,-0.99,192,0,0,0,0,0,0,0,0,0,0
 2023-06-24 15:07:59.953,-38664.89693,30464.75714,3123.008087,23931.09637,19405.22574,-61848.66272,11777.51413,-54650.1046,-0.016,0.098,-0.99,192,0,0,0,0,0,0,0,0,0,0
 2023-06-24 15:07:59.953,-38830.27748,29513.86923,2184.078358,22968.54084,18470.38638,-61256.49795,10843.70295,-54276.60695,-0.016,0.098,-0.99,192,0,0,0,0,0,0,0,0,0,0
 2023-06-24 15:08:00.429,-39085.13207,29879.85669,2574.406871,23269.64119,18853.31647,-61967.99868,11227.10243,-54694.42811,-0.014,0.098,-0.992,192,255,144,3,16,225,0,0,0,0,0
 2023-06-24 15:08:00.430,-39084.1933,31057.83833,3757.283539,24424.46642,20037.55659,-62978.81162,12408.25801,-55312.49855,-0.014,0.098,-0.992,192,0,0,0,0,0,0,0,0,0,0
 2023-06-24 15:08:00.430,-38823.95194,31456.43699,4135.855035,24872.70831,20422.58774,-62954.18,12783.05206,-55311.85035,-0.014,0.098,-0.992,192,0,0,0,0,0,0,0,0,0,0
 2023-06-24 15:08:00.430,-38637.69485,30481.09627,3140.889483,23950.14005,19423.73299,-61874.36722,11792.66862,-54656.69836,-0.014,0.098,-0.992,192,0,0,0,0,0,0,0,0,0,0
 2023-06-24 15:08:00.430,-38800.84023,29481.21333,2154.484648,22925.91607,18429.52739,-61267.42795,10810.75648,-54275.53407,-0.014,0.098,-0.992,192,0,0,0,0,0,0,0,0,0,0
 2023-06-24 15:08:00.430,-39048.69873,29881.10839,2573.311636,23272.47986,18854.90344,-61956.26401,11223.32498,-54680.34651,-0.014,0.098,-0.992,192,0,0,0,0,0,0,0,0,0,0
 2023-06-24 15:08:00.430,-39040.47329,31131.66614,3829.345564,24490.87345,20111.83144,-62962.65131,12486.06443,-55294.93008,-0.014,0.098,-0.992,192,0,0,0,0,0,0,0,0,0,0
 2023-06-24 15:08:00.430,-38784.47876,31536.03155,4213.504996,24937.59542,20503.45635,-62958.09155,12875.02949,-55310.71041,-0.014,0.098,-0.992,192,0,0,0,0,0,0,0,0,0,0
 2023-06-24 15:08:00.430,-38602.15558,30534.13696,3191.315018,24000.81146,19483.05452,-61895.93666,11855.81229,-54670.22117,-0.014,0.098,-0.992,192,0,0,0,0,0,0,0,0,0,0
 2023-06-24 15:08:00.430,-38758.19311,29536.17627,2205.424274,22979.29203,18491.53113,-61265.81863,10872.31319,-54274.01415,-0.014,0.098,-0.992,192,0,0,0,0,0,0,0,0,0,0
 2023-06-24 15:08:00.430,-39008.19737,29883.92471,2573.24458,23271.80931,18860.53608,-61939.00847,11228.66705,-54668.92477,-0.022,0.092,-0.996,192,255,80,2,224,224,224,0,0,0,0
 2023-06-24 15:08:00.430,-39009.8514,31078.55839,3774.784955,24438.19039,20062.76936,-62955.27523,12421.11026,-55291.71142,-0.022,0.092,-0.996,192,0,0,0,0,0,0,0,0,0,0
 2023-06-24 15:08:00.430,-38757.43315,31499.48645,4176.490507,24899.15042,20464.45256,-62971.88258,12821.87704,-55319.71816,-0.022,0.092,-0.996,192,0,0,0,0,0,0,0,0,0,0
 2023-06-24 15:08:00.430,-38567.44332,30562.63543,3214.538481,24032.01449,19508.96019,-61916.9473,11875.10185,-54681.64291,-0.022,0.092,-0.996,192,0,0,0,0,0,0,0,0,0,0
 2023-06-24 15:08:00.430,-38725.51486,29506.24728,2170.041462,22958.90724,18460.93159,-61273.61939,10831.67771,-54279.66914,-0.022,0.092,-0.996,192,0,0,0,0,0,0,0,0,0,0
 2023-06-24 15:08:00.430,-38981.21881,29821.38453,2509.072722,23225.00476,18803.0921,-61932.9735,11166.99859,-54666.80135,-0.022,0.092,-0.996,192,0,0,0,0,0,0,0,0,0,0
 2023-06-24 15:08:00.430,-38994.54045,30981.39536,3678.404233,24361.52391,19971.97657,-62958.51624,12324.64013,-55294.93008,-0.022,0.092,-0.996,192,0,0,0,0,0,0,0,0,0,0
 2023-06-24 15:08:00.430,-38746.05611,31423.267,4101.925087,24837.21374,20395.36332,-62993.83199,12761.68379,-55331.51988,-0.022,0.092,-0.996,192,0,0,0,0,0,0,0,0,0,0
 2023-06-24 15:08:00.430,-38545.24804,30558.85798,3217.175986,24039.88231,19516.33626,-61941.3554,11874.58776,-54693.46698,-0.022,0.092,-0.996,192,0,0,0,0,0,0,0,0,0,0
 2023-06-24 15:08:00.430,-38695.20589,29495.07141,2164.989968,22976.9004,18468.26297,-61275.72045,10831.36479,-54276.80812,-0.022,0.092,-0.996,192,0,0,0,0,0,0,0,0,0,0
 2023-06-24 15:08:00.430,-38950.23929,29798.6081,2492.420672,23213.58302,18789.79281,-61916.3885,11161.07537,-54651.06573,-0.024,0.096,-0.99,192,255,64,3,0,225,16,0,0,0,0
 2023-06-24 15:08:00.430,-38963.27036,30986.84919,3691.032969,24359.35579,19982.14662,-62940.81365,12360.02295,-55277.78629,-0.024,0.096,-0.99,192,0,0,0,0,0,0,0,0,0,0
 2023-06-24 15:08:00.430,-38712.97553,31476.5312,4162.274797,24889.80739,20456.6518,-62992.11091,12822.94992,-55327.16129,-0.024,0.096,-0.99,192,0,0,0,0,0,0,0,0,0,0
 2023-06-24 15:08:00.430,-38514.58144,30598.95701,3259.867818,24078.77434,19561.26327,-61956.10755,11925.84031,-54703.2794,-0.024,0.096,-0.99,192,0,0,0,0,0,0,0,0,0,0
 2023-06-24 15:08:00.430,-38667.91441,29479.89458,2150.6625,22950.52534,18455.20955,-61280.36961,10830.00133,-54281.56904,-0.024,0.096,-0.99,192,0,0,0,0,0,0,0,0,0,0
 2023-06-24 15:08:00.430,-38923.4172,29761.86183,2455.249721,23164.0739,18756.22049,-61904.96676,11137.6731,-54645.23192,-0.024,0.096,-0.99,192,0,0,0,0,0,0,0,0,0,0
 2023-06-24 15:08:00.430,-38936.44827,30977.03677,3675.654969,24340.82619,19973.60825,-62929.52602,12349.16,-55267.90682,-0.024,0.096,-0.99,192,0,0,0,0,0,0,0,0,0,0
 2023-06-24 15:08:00.430,-38680.67726,31530.80124,4209.07935,24923.2903,20502.22701,-62993.11674,12873.33076,-55323.02622,-0.024,0.096,-0.99,192,0,0,0,0,0,0,0,0,0,0
 2023-06-24 15:08:00.430,-38486.84293,30629.82477,3282.644246,24081.25539,19579.30113,-61975.93355,11957.08805,-54713.58355,-0.024,0.096,-0.99,192,0,0,0,0,0,0,0,0,0,0
 2023-06-24 15:08:00.430,-38624.7979,29574.88949,2239.868312,23018.22877,18535.94405,-61274.66992,10919.18479,-54275.80229,-0.024,0.096,-0.99,192,0,0,0,0,0,0,0,0,0,0
 2023-06-24 15:08:00.430,-38883.0276,29827.93359,2516.113522,23218.27688,18808.9259,-61881.49743,11179.73908,-54629.71981,-0.018,0.094,-0.994,192,255,112,2,240,224,240,0,0,0,0
 2023-06-24 15:08:00.430,-38907.48041,30983.45172,3678.784213,24345.94474,19971.06015,-62912.51635,12328.57404,-55259.03317,-0.018,0.094,-0.994,192,0,0,0,0,0,0,0,0,0,0
 2023-06-24 15:08:00.430,-38656.8503,31530.10834,4211.269821,24923.31265,20498.06958,-62996.62596,12860.4785,-55326.06606,-0.018,0.094,-0.994,192,0,0,0,0,0,0,0,0,0,0
 2023-06-24 15:08:00.430,-38457.40568,30675.7129,3333.159188,24126.9647,19623.44582,-61991.11038,11993.54374,-54721.56313,-0.018,0.094,-0.994,192,0,0,0,0,0,0,0,0,0,0
 2023-06-24 15:08:00.430,-38590.42091,29604.75142,2274.088833,23045.63201,18563.25788,-61275.16166,10935.9039,-54275.01998,-0.018,0.094,-0.994,192,0,0,0,0,0,0,0,0,0,0
 2023-06-24 15:08:00.430,-38840.38047,29872.01123,2562.47104,23258.46532,18850.43309,-61858.60924,11210.98682,-54612.79954,-0.018,0.094,-0.994,192,0,0,0,0,0,0,0,0,0,0
 2023-06-24 15:08:00.430,-38865.01209,31027.79758,3729.142693,24373.86207,20011.00272,-62889.11407,12371.89172,-55237.66491,-0.018,0.094,-0.994,192,0,0,0,0,0,0,0,0,0,0
 2023-06-24 15:08:00.430,-38608.88345,31638.42489,4323.229709,25019.55927,20611.14706,-62986.70178,12978.94275,-55312.4762,-0.018,0.094,-0.994,192,0,0,0,0,0,0,0,0,0,0
 2023-06-24 15:08:00.430,-38412.67984,30778.91091,3442.012184,24224.8877,19736.16567,-62000.34165,12107.89527,-54722.70307,-0.018,0.094,-0.994,192,0,0,0,0,0,0,0,0,0,0
 2023-06-24 15:08:00.430,-38551.8418,29641.34123,2314.500787,23085.73104,18611.6047,-61276.12278,10992.38676,-54272.7848,-0.018,0.094,-0.994,192,0,0,0,0,0,0,0,0,0,0
 2023-06-24 15:08:00.430,-38811.45731,29817.36121,2513.341905,23214.16416,18810.53523,-61846.47225,11181.3037,-54605.69168,-0.018,0.09,-0.992,192,255,112,2,208,225,0,0,0,0,0
 2023-06-24 15:08:00.430,-38837.85472,30986.62567,3690.451824,24352.85143,19984.33709,-62872.8867,12345.9637,-55229.61828,-0.018,0.09,-0.992,192,0,0,0,0,0,0,0,0,0,0
 2023-06-24 15:08:00.430,-38594.7795,31545.84396,4230.246452,24949.86653,20524.37759,-62998.52586,12885.28894,-55322.1098,-0.018,0.09,-0.992,192,0,0,0,0,0,0,0,0,0,0
 2023-06-24 15:08:00.430,-38389.94812,30751.97706,3412.284364,24215.14234,19709.29887,-62019.02771,12085.47647,-54735.64473,-0.018,0.09,-0.992,192,0,0,0,0,0,0,0,0,0,0
 2023-06-24 15:08:00.430,-38518.51535,29642.79409,2308.018781,23095.29759,18610.71063,-61278.13444,10992.65498,-54274.43883,-0.018,0.09,-0.992,192,0,0,0,0,0,0,0,0,0,0
 2023-06-24 15:08:00.430,-38764.42924,29883.81295,2572.931656,23274.60328,18872.2931,-61820.90185,11248.15777,-54586.89387,-0.018,0.09,-0.992,192,0,0,0,0,0,0,0,0,0,0
 2023-06-24 15:08:00.430,-38811.54672,30926.56653,3623.642459,24287.67375,19918.98059,-62861.50966,12284.58581,-55222.66689,-0.018,0.09,-0.992,192,0,0,0,0,0,0,0,0,0,0
 2023-06-24 15:08:00.430,-38573.83592,31485.31544,4162.230094,24883.5936,20463.20086,-63011.13224,12823.44166,-55330.89403,-0.018,0.09,-0.992,192,0,0,0,0,0,0,0,0,0,0
 2023-06-24 15:08:00.430,-38366.63525,30723.90327,3374.889895,24176.33971,19680.46512,-62047.77206,12040.16948,-54753.48142,-0.018,0.09,-0.992,192,0,0,0,0,0,0,0,0,0,0
 2023-06-24 15:08:00.430,-38491.17917,29619.68239,2278.492126,23065.01097,18580.7593,-61291.61254,10945.31398,-54281.59139,-0.018,0.09,-0.992,192,0,0,0,0,0,0,0,0,0,0
 2023-06-24 15:08:00.430,-38746.01141,29769.1932,2450.891131,23162.62104,18756.64517,-61821.43829,11111.47685,-54588.86082,-0.014,0.094,-0.988,192,255,144,2,240,225,32,0,0,0,0
 2023-06-24 15:08:00.430,-38783.74115,30893.01656,3589.086662,24242.65733,19884.82712,-62847.89745,12232.26037,-55212.47449,-0.014,0.094,-0.988,192,0,0,0,0,0,0,0,0,0,0
