 Timestamp_formatted, EXG Channel 0, EXG Channel 1, EXG Channel 2, EXG Channel 3, EXG Channel 4, EXG Channel 5, EXG Channel 6, EXG Channel 7, Accel Channel 0, Accel Channel 1, Accel Channel 2, Other, Other.1, Other.2, Other.3, Other.4, Other.5, Other.6, Analog Channel 0, Analog Channel 1, Analog Channel 2, Other.7
 2023-06-24 15:08:28.020,-46548.75953,30775.5358,3476.523277,23812.74388,19664.126,-63501.9989,11894.9502,-55455.48266,-0.016,0.096,-0.992,192,0,0,0,0,0,0,0,0,0,0
 2023-06-24 15:08:28.020,-46377.61222,29783.2748,2458.267207,22875.87051,18658.09633,-62479.58541,10900.23052,-54840.04972,-0.016,0.096,-0.992,192,0,0,0,0,0,0,0,0,0,0
 2023-06-24 15:08:28.020,-46546.5467,28763.2753,1453.757459,21835.10623,17650.09971,-61904.83265,9898.112404,-54475.69394,-0.016,0.096,-0.992,192,0,0,0,0,0,0,0,0,0,0
 2023-06-24 15:08:28.020,-46781.44119,29173.07218,1891.337561,22174.85275,18073.48646,-62551.26745,10327.2659,-54850.77856,-0.016,0.096,-0.992,192,0,0,0,0,0,0,0,0,0,0
 2023-06-24 15:08:28.020,-46766.04083,30345.22001,3070.414432,23322.16779,19248.27179,-63514.89586,11502.11829,-55441.9375,-0.016,0.096,-0.992,192,0,0,0,0,0,0,0,0,0,0
 2023-06-24 15:08:28.020,-46500.09978,30774.30645,3480.814812,23796.02478,19661.98023,-63510.78314,11911.71401,-55463.19401,-0.016,0.096,-0.992,192,0,0,0,0,0,0,0,0,0,0
 2023-06-24 15:08:28.020,-46320.27999,29823.5303,2511.687876,22913.75672,18696.72015,-62491.76711,10947.10212,-54850.33153,-0.016,0.092,-0.992,192,255,128,2,224,225,0,0,0,0,0
 2023-06-24 15:08:28.020,-46482.86658,28798.07696,1495.66698,21884.39183,17688.03062,-61897.8142,9933.763437,-54473.41406,-0.016,0.092,-0.992,192,0,0,0,0,0,0,0,0,0,0
 2023-06-24 15:08:28.020,-46732.37911,29107.82744,1829.043249,22138.08413,18022.59153,-62542.32675,10265.46332,-54849.54922,-0.016,0.092,-0.992,192,0,0,0,0,0,0,0,0,0,0
 2023-06-24 15:08:28.020,-46730.21099,30266.81009,2998.687684,23265.8414,19184.14464,-63514.62764,11420.95911,-55447.48073,-0.016,0.092,-0.992,192,0,0,0,0,0,0,0,0,0,0
 2023-06-24 15:08:28.020,-46467.30977,30724.66322,3438.301794,23756.12691,19626.19509,-63529.49155,11864.03774,-55478.30379,-0.016,0.092,-0.992,192,0,0,0,0,0,0,0,0,0,0
 2023-06-24 15:08:28.020,-46280.80681,29803.54784,2492.085396,22887.98516,18684.96313,-62516.6446,10933.4005,-54867.49767,-0.016,0.092,-0.992,192,0,0,0,0,0,0,0,0,0,0
 2023-06-24 15:08:28.021,-46430.31763,28803.82136,1502.931297,21873.61829,17696.27842,-61894.43909,9949.9461,-54471.60357,-0.016,0.092,-0.992,192,0,0,0,0,0,0,0,0,0,0
 2023-06-24 15:08:28.021,-46674.89042,29111.44842,1833.647708,22133.7926,18022.01039,-62518.76801,10273.91228,-54833.27715,-0.016,0.092,-0.992,192,0,0,0,0,0,0,0,0,0,0
 2023-06-24 15:08:28.021,-46683.20527,30224.85587,2954.095954,23220.66852,19135.93193,-63503.2506,11375.13803,-55438.51768,-0.016,0.092,-0.992,192,0,0,0,0,0,0,0,0,0,0
 2023-06-24 15:08:28.021,-46419.85702,30727.81482,3439.240568,23760.4855,19627.04445,-63537.62758,11865.4906,-55481.38833,-0.016,0.092,-0.992,192,0,0,0,0,0,0,0,0,0,0
 2023-06-24 15:08:28.021,-46237.82441,29767.2486,2455.070907,22863.73351,18654.85533,-62543.77962,10890.28399,-54884.95438,-0.014,0.096,-0.99,192,255,144,3,0,225,16,0,0,0,0
 2023-06-24 15:08:28.021,-46388.38576,28738.2637,1437.507741,21820.75641,17636.55456,-61905.97259,9873.413726,-54480.9466,-0.014,0.096,-0.99,192,0,0,0,0,0,0,0,0,0,0
 2023-06-24 15:08:28.021,-46632.01977,29075.99855,1794.599211,22094.7888,17986.49347,-62509.33558,10235.44493,-54831.19843,-0.014,0.096,-0.99,192,0,0,0,0,0,0,0,0,0,0
 2023-06-24 15:08:28.021,-46643.03918,30215.15521,2935.253434,23198.94263,19126.00775,-63495.71806,11383.65404,-55437.04247,-0.014,0.096,-0.99,192,0,0,0,0,0,0,0,0,0,0
 2023-06-24 15:08:28.021,-46385.10005,30719.32116,3421.537986,23731.87527,19616.47208,-63552.69266,11878.52167,-55493.27946,-0.014,0.096,-0.99,192,0,0,0,0,0,0,0,0,0,0
 2023-06-24 15:08:28.021,-46193.65736,29825.74312,2507.396341,22896.41176,18704.20798,-62562.15275,10954.14292,-54900.6006,-0.014,0.096,-0.99,192,0,0,0,0,0,0,0,0,0,0
 2023-06-24 15:08:28.021,-46340.7989,28772.73008,1466.766175,21841.87881,17662.61669,-61904.45267,9889.194058,-54486.71335,-0.014,0.096,-0.99,192,0,0,0,0,0,0,0,0,0,0
 2023-06-24 15:08:28.021,-46593.8877,29031.40682,1749.046355,22053.05809,17943.04168,-62498.31617,10173.84352,-54832.67365,-0.014,0.096,-0.99,192,0,0,0,0,0,0,0,0,0,0
 2023-06-24 15:08:28.021,-46608.17046,30206.23686,2930.447809,23208.1739,19129.44992,-63485.81624,11366.71142,-55437.28834,-0.014,0.096,-0.99,192,0,0,0,0,0,0,0,0,0,0
 2023-06-24 15:08:28.021,-46355.59575,30718.24827,3421.403876,23753.37765,19622.66351,-63565.79078,11865.58001,-55508.29983,-0.014,0.096,-0.99,192,0,0,0,0,0,0,0,0,0,0
 2023-06-24 15:08:28.021,-46157.6934,29862.69055,2543.583816,22949.81008,18745.37989,-62581.46466,10992.49852,-54917.25265,-0.012,0.098,-0.99,192,255,160,3,16,225,16,0,0,0,0
 2023-06-24 15:08:28.021,-46304.81259,28781.06729,1469.738957,21863.31414,17675.17837,-61906.44198,9912.909259,-54490.49079,-0.012,0.098,-0.99,192,0,0,0,0,0,0,0,0,0,0
 2023-06-24 15:08:28.021,-46549.47478,29092.71766,1803.875185,22109.67506,18001.51384,-62474.3104,10240.65289,-54817.72033,-0.012,0.098,-0.99,192,0,0,0,0,0,0,0,0,0,0
 2023-06-24 15:08:28.021,-46572.27356,30224.14061,2944.641166,23202.98829,19135.95428,-63468.24777,11383.98932,-55427.63238,-0.012,0.098,-0.99,192,0,0,0,0,0,0,0,0,0,0
 2023-06-24 15:08:28.021,-46317.68719,30775.42404,3479.719577,23792.96259,19671.92676,-63566.059,11918.84421,-55508.85862,-0.012,0.098,-0.99,192,0,0,0,0,0,0,0,0,0,0
 2023-06-24 15:08:28.021,-46111.29118,29961.3288,2644.747811,23054.10332,18842.98996,-62594.49572,11078.21746,-54927.33329,-0.012,0.098,-0.99,192,0,0,0,0,0,0,0,0,0,0
 2023-06-24 15:08:28.021,-46246.74275,28876.37512,1569.181868,21970.66956,17768.31809,-61897.59068,10007.5689,-54488.25562,-0.012,0.098,-0.99,192,0,0,0,0,0,0,0,0,0,0
 2023-06-24 15:08:28.021,-46503.31843,29063.63804,1776.337835,22093.60416,17968.85794,-62461.5252,10216.44595,-54815.84279,-0.012,0.098,-0.99,192,0,0,0,0,0,0,0,0,0,0
 2023-06-24 15:08:28.021,-46537.71776,30158.89587,2878.435299,23158.82124,19070.866,-63466.7949,11316.48705,-55432.63917,-0.012,0.098,-0.99,192,0,0,0,0,0,0,0,0,0,0
 2023-06-24 15:08:28.021,-46285.94771,30727.63601,3431.283347,23758.5409,19623.1776,-63585.2368,11870.18447,-55526.74002,-0.012,0.098,-0.99,192,0,0,0,0,0,0,0,0,0,0
 2023-06-24 15:08:28.021,-46077.6071,29912.80316,2596.356284,22996.32406,18787.51293,-62624.71528,11049.47311,-54951.7861,-0.02,0.098,-0.99,192,255,96,3,16,225,16,0,0,0,0
 2023-06-24 15:08:28.021,-46206.77784,28842.28871,1534.536664,21922.79213,17723.90517,-61904.87735,9987.005292,-54495.34112,-0.02,0.098,-0.99,192,0,0,0,0,0,0,0,0,0,0
 2023-06-24 15:08:28.021,-46454.14459,29089.18608,1801.014161,22123.84607,17989.33214,-62443.82262,10248.78892,-54803.72814,-0.02,0.098,-0.99,192,0,0,0,0,0,0,0,0,0,0
 2023-06-24 15:08:28.021,-46490.33207,30185.18152,2908.140768,23182.78231,19090.37907,-63448.86881,11354.2168,-55419.69751,-0.02,0.098,-0.99,192,0,0,0,0,0,0,0,0,0,0
 2023-06-24 15:08:28.021,-46247.83799,30732.70985,3445.476704,23752.1036,19622.4847,-63589.79655,11884.26606,-55527.96936,-0.02,0.098,-0.99,192,0,0,0,0,0,0,0,0,0,0
 2023-06-24 15:08:28.021,-46043.40894,29900.44265,2591.751825,22983.02477,18776.67234,-62648.31873,11031.99405,-54964.30307,-0.02,0.098,-0.99,192,0,0,0,0,0,0,0,0,0,0
 2023-06-24 15:08:28.021,-46166.56705,28818.50646,1519.717457,21899.61337,17707.56605,-61909.16889,9957.456286,-54495.54229,-0.02,0.098,-0.99,192,0,0,0,0,0,0,0,0,0,0
 2023-06-24 15:08:28.021,-46416.01252,29045.24255,1768.782946,22075.76747,17959.24669,-62433.362,10203.88427,-54794.22865,-0.02,0.098,-0.99,192,0,0,0,0,0,0,0,0,0,0
 2023-06-24 15:08:28.021,-46453.33993,30181.18056,2913.505186,23171.33822,19100.9738,-63437.67058,11347.8242,-55406.01825,-0.02,0.098,-0.99,192,0,0,0,0,0,0,0,0,0,0
 2023-06-24 15:08:28.021,-46200.96638,30844.31211,3555.827267,23867.14803,19747.98974,-63587.89666,11998.32702,-55516.07824,-0.02,0.098,-0.99,192,0,0,0,0,0,0,0,0,0,0
 2023-06-24 15:08:28.021,-45983.28274,30076.7085,2760.082812,23160.20705,18955.41924,-62651.35856,11206.62823,-54955.45178,-0.016,0.098,-0.986,192,255,128,3,16,225,48,0,0,0,0
 2023-06-24 15:08:28.021,-46108.2737,28907.37699,1597.210955,21983.11949,17795.14018,-61900.69758,10052.71942,-54484.72404,-0.016,0.098,-0.986,192,0,0,0,0,0,0,0,0,0,0
 2023-06-24 15:08:28.021,-46370.41496,29015.33592,1727.655736,22036.18253,17920.75699,-62421.09089,10174.1341,-54786.562,-0.016,0.098,-0.986,192,0,0,0,0,0,0,0,0,0,0
 2023-06-24 15:08:28.021,-46417.35362,30119.62385,2841.979604,23099.47736,19027.95065,-63435.05543,11274.93516,-55406.97937,-0.016,0.098,-0.986,192,0,0,0,0,0,0,0,0,0,0
 2023-06-24 15:08:28.021,-46177.22883,30742.49992,3451.019937,23751.34364,19637.10274,-63611.72362,11882.32146,-55534.8984,-0.016,0.098,-0.986,192,0,0,0,0,0,0,0,0,0,0
 2023-06-24 15:08:28.021,-45963.38969,29958.28896,2646.200674,23029.85168,18835.90446,-62693.29044,11081.07848,-54987.99592,-0.016,0.098,-0.986,192,0,0,0,0,0,0,0,0,0,0
 2023-06-24 15:08:28.021,-46072.80148,28870.83189,1565.940865,21949.83774,17761.67962,-61912.02991,10004.3726,-54493.97767,-0.016,0.098,-0.986,192,0,0,0,0,0,0,0,0,0,0
 2023-06-24 15:08:28.021,-46326.58319,29062.72162,1780.49526,22086.78688,17972.12129,-62403.2542,10213.40611,-54771.74279,-0.016,0.098,-0.986,192,0,0,0,0,0,0,0,0,0,0
 2023-06-24 15:08:28.021,-46371.42079,30214.28349,2940.930777,23202.5189,19128.95818,-63413.84362,11371.65116,-55384.35941,-0.016,0.098,-0.986,192,0,0,0,0,0,0,0,0,0,0
 2023-06-24 15:08:28.021,-46133.57587,30848.73776,3556.073136,23865.35989,19750.73901,-63608.92965,11987.59818,-55522.44848,-0.016,0.098,-0.986,192,0,0,0,0,0,0,0,0,0,0
 2023-06-24 15:08:28.021,-45917.50156,30069.75711,2753.13142,23143.01856,18949.876,-62704.06398,11192.77015,-54986.76658,-0.024,0.098,-0.984,192,255,64,3,16,225,64,0,0,0,0
 2023-06-24 15:08:28.021,-46024.78993,28943.22919,1633.867816,22011.57326,17820.39765,-61909.28065,10061.05662,-54487.80858,-0.024,0.098,-0.984,192,0,0,0,0,0,0,0,0,0,0
 2023-06-24 15:08:28.021,-46282.55025,29080.98299,1795.202708,22094.94526,17976.50224,-62386.26687,10213.16024,-54760.9022,-0.024,0.098,-0.984,192,0,0,0,0,0,0,0,0,0,0
 2023-06-24 15:08:28.021,-46342.92231,30148.30114,2873.204991,23129.76398,19056.65029,-63407.67454,11291.90013,-55384.29235,-0.024,0.098,-0.984,192,0,0,0,0,0,0,0,0,0,0
 2023-06-24 15:08:28.021,-46108.56427,30772.96534,3479.741929,23787.06173,19671.39032,-63624.75468,11909.85881,-55536.28421,-0.024,0.098,-0.984,192,0,0,0,0,0,0,0,0,0,0
 2023-06-24 15:08:28.021,-45878.60952,30054.35676,2737.194626,23128.71344,18934.81093,-62726.751,11168.11617,-55001.36226,-0.024,0.098,-0.984,192,0,0,0,0,0,0,0,0,0,0
 2023-06-24 15:08:28.021,-45985.74143,28869.28962,1555.971987,21939.42183,17751.55428,-61917.93077,9984.211324,-54493.41887,-0.024,0.098,-0.984,192,0,0,0,0,0,0,0,0,0,0
 2023-06-24 15:08:28.021,-46237.86911,29029.90926,1735.814123,22045.03382,17932.4246,-62371.64883,10166.73567,-54751.69328,-0.024,0.098,-0.984,192,0,0,0,0,0,0,0,0,0,0
 2023-06-24 15:08:28.021,-46304.58907,30076.75321,2794.683313,23061.23353,18992.74665,-63400.81255,11234.61261,-55380.96194,-0.024,0.098,-0.984,192,0,0,0,0,0,0,0,0,0,0
 2023-06-24 15:08:28.022,-46069.35931,30762.21416,3472.634074,23775.97526,19667.54582,-63634.6565,11908.76358,-55542.60976,-0.024,0.098,-0.984,192,0,0,0,0,0,0,0,0,0,0
 2023-06-24 15:08:28.022,-45826.57466,30146.91533,2837.755124,23217.96396,19030.43169,-62738.68683,11268.78843,-55008.09014,-0.026,0.098,-0.99,192,255,48,3,16,225,16,0,0,0,0
 2023-06-24 15:08:28.022,-45924.22943,28956.1038,1654.990215,22021.81036,17838.21199,-61906.84431,10084.05657,-54485.46165,-0.026,0.098,-0.99,192,0,0,0,0,0,0,0,0,0,0
 2023-06-24 15:08:28.022,-46189.20936,28997.72274,1720.011439,22013.65197,17903.09911,-62351.17463,10157.43734,-54739.44452,-0.026,0.098,-0.99,192,0,0,0,0,0,0,0,0,0,0
 2023-06-24 15:08:28.022,-46249.02263,30134.26425,2864.800735,23133.25085,19058.23726,-63368.42488,11301.042,-55357.71613,-0.026,0.098,-0.99,192,0,0,0,0,0,0,0,0,0,0
 2023-06-24 15:08:28.022,-46006.75207,30892.59188,3608.175052,23921.73099,19803.93616,-63613.04237,12051.9712,-55525.24245,-0.026,0.098,-0.99,192,0,0,0,0,0,0,0,0,0,0
 2023-06-24 15:08:28.022,-45773.06459,30200.62658,2890.885221,23286.74028,19089.10502,-62744.38652,11344.76201,-55010.52648,-0.026,0.098,-0.99,192,0,0,0,0,0,0,0,0,0,0
 2023-06-24 15:08:28.022,-45876.10613,28933.30502,1626.558796,22025.36428,17829.74068,-61905.99494,10071.24902,-54485.57341,-0.026,0.098,-0.99,192,0,0,0,0,0,0,0,0,0,0
 2023-06-24 15:08:28.022,-46140.86254,28972.26411,1691.758834,22005.09125,17885.57534,-62334.61199,10117.58418,-54727.73221,-0.026,0.098,-0.99,192,0,0,0,0,0,0,0,0,0,0
 2023-06-24 15:08:28.022,-46203.82741,30112.35954,2849.422735,23098.47153,19028.82237,-63355.05853,11266.68737,-55346.11557,-0.026,0.098,-0.99,192,0,0,0,0,0,0,0,0,0,0
 2023-06-24 15:08:28.022,-45981.15933,30786.59991,3508.933307,23795.53304,19682.7003,-63632.24252,11921.43702,-55534.83135,-0.026,0.098,-0.99,192,0,0,0,0,0,0,0,0,0,0
 2023-06-24 15:08:28.022,-45742.15212,30150.02223,2844.058316,23221.0038,19022.92151,-62773.82377,11260.42888,-55024.74219,-0.026,0.098,-0.99,192,255,48,3,16,225,16,0,0,0,0
 2023-06-24 15:08:28.022,-45835.87299,28892.89306,1589.276086,21975.89987,17773.25782,-61914.30979,10018.00716,-54485.32754,-0.026,0.098,-0.99,192,0,0,0,0,0,0,0,0,0,0
 2023-06-24 15:08:28.022,-46092.9404,28967.88317,1689.434253,21994.51888,17873.37129,-62316.82,10126.1002,-54711.03546,-0.026,0.098,-0.99,192,0,0,0,0,0,0,0,0,0,0
 2023-06-24 15:08:28.022,-46167.37171,30055.96609,2788.558935,23047.12958,18972.96536,-63344.3744,11223.21322,-55336.25845,-0.026,0.098,-0.99,192,0,0,0,0,0,0,0,0,0,0
 2023-06-24 15:08:28.022,-45944.03308,30789.81856,3503.323019,23805.3678,19689.40582,-63637.56223,11926.17559,-55536.0607,-0.026,0.098,-0.99,192,0,0,0,0,0,0,0,0,0,0
 2023-06-24 15:08:28.022,-45709.228,30135.71711,2822.555938,23212.57719,19014.47255,-62799.08124,11248.20247,-55041.97538,-0.026,0.098,-0.99,192,0,0,0,0,0,0,0,0,0,0
 2023-06-24 15:08:28.022,-45792.26473,28911.66853,1606.688095,21990.89789,17789.95458,-61921.26118,10030.81471,-54490.02141,-0.026,0.098,-0.99,192,0,0,0,0,0,0,0,0,0,0
 2023-06-24 15:08:28.022,-46048.12515,28977.42736,1696.519756,22001.73849,17877.90869,-62301.17378,10140.98646,-54700.0384,-0.026,0.098,-0.99,192,0,0,0,0,0,0,0,0,0,0
 2023-06-24 15:08:28.022,-46131.00542,30026.95352,2757.199437,23021.46977,18946.85852,-63332.08094,11199.85565,-55325.03788,-0.026,0.098,-0.99,192,0,0,0,0,0,0,0,0,0,0
 2023-06-24 15:08:28.022,-45905.05164,30822.83209,3543.533807,23836.25792,19726.95675,-63639.86446,11967.43691,-55529.53399,-0.026,0.098,-0.99,192,0,0,0,0,0,0,0,0,0,0
 2023-06-24 15:08:28.022,-45657.50607,30263.85966,2960.175629,23339.28923,19146.97369,-62804.40096,11389.06317,-55035.22516,-0.022,0.098,-0.988,192,255,80,3,16,225,32,0,0,0,0
 2023-06-24 15:08:28.022,-45741.41452,28973.58286,1668.982407,22065.99975,17862.48599,-61916.20969,10110.05165,-54480.18664,-0.022,0.098,-0.988,192,0,0,0,0,0,0,0,0,0,0
 2023-06-24 15:08:28.022,-46003.2205,28978.81317,1695.245706,22017.8541,17887.05056,-62285.14758,10138.37131,-54684.30277,-0.022,0.098,-0.988,192,0,0,0,0,0,0,0,0,0,0
 2023-06-24 15:08:28.022,-46087.95596,30054.64733,2784.468566,23047.3978,18971.6019,-63314.35601,11217.29001,-55306.46358,-0.022,0.098,-0.988,192,0,0,0,0,0,0,0,0,0,0
 2023-06-24 15:08:28.022,-45875.52498,30784.90118,3501.110196,23793.87901,19681.80623,-63651.86735,11921.10174,-55530.76333,-0.022,0.098,-0.988,192,0,0,0,0,0,0,0,0,0,0
 2023-06-24 15:08:28.022,-45632.96385,30194.94923,2888.582991,23256.36426,19065.34512,-62839.56025,11318.47636,-55051.1396,-0.022,0.098,-0.988,192,0,0,0,0,0,0,0,0,0,0
 2023-06-24 15:08:28.022,-45701.58371,28966.36325,1661.583979,22050.95703,17844.82811,-61927.47497,10092.86315,-54479.62785,-0.022,0.098,-0.988,192,0,0,0,0,0,0,0,0,0,0
 2023-06-24 15:08:28.022,-45961.80272,28968.82194,1689.791881,22001.2244,17865.83875,-62272.04946,10113.13619,-54671.11524,-0.022,0.098,-0.988,192,0,0,0,0,0,0,0,0,0,0
 2023-06-24 15:08:28.022,-46050.38268,30057.15073,2793.945705,23036.91483,18960.85071,-63295.44643,11203.87896,-55290.99617,-0.022,0.098,-0.988,192,0,0,0,0,0,0,0,0,0,0
 2023-06-24 15:08:28.022,-45843.22671,30794.02069,3512.487234,23806.016,19688.62351,-63648.0005,11926.73438,-55526.98589,-0.022,0.098,-0.988,192,0,0,0,0,0,0,0,0,0,0
 2023-06-24 15:08:28.022,-45597.87161,30252.92966,2944.864684,23318.99384,19125.80659,-62848.88093,11375.22744,-55056.79459,-0.02,0.1,-0.988,192,255,96,3,32,225,32,0,0,0,0
 2023-06-24 15:08:28.022,-45660.23298,29030.87038,1720.592585,22103.34952,17906.74244,-61924.56924,10168.45675,-54479.0467,-0.02,0.1,-0.988,192,0,0,0,0,0,0,0,0,0,0
 2023-06-24 15:08:28.022,-45922.24013,28994.81702,1705.505157,22025.5878,17893.62197,-62253.67633,10142.08169,-54661.01225,-0.02,0.1,-0.988,192,0,0,0,0,0,0,0,0,0,0
 2023-06-24 15:08:28.022,-46016.36332,30062.5375,2792.761063,23052.42694,18974.39587,-63277.98972,11223.79437,-55278.81447,-0.02,0.1,-0.988,192,0,0,0,0,0,0,0,0,0,0
 2023-06-24 15:08:28.022,-45809.05089,30835.48317,3555.782563,23842.73992,19732.49998,-63649.00632,11973.02484,-55522.56024,-0.02,0.1,-0.988,192,0,0,0,0,0,0,0,0,0,0
 2023-06-24 15:08:28.022,-45570.08839,30234.06479,2932.750038,23297.26795,19110.11566,-62875.12188,11350.75228,-55070.42915,-0.02,0.1,-0.988,192,0,0,0,0,0,0,0,0,0,0
 2023-06-24 15:08:28.022,-45627.48767,28997.0969,1698.799634,22074.64988,17878.44513,-61938.65084,10113.80674,-54485.86398,-0.02,0.1,-0.988,192,0,0,0,0,0,0,0,0,0,0
 2023-06-24 15:08:28.022,-45885.02447,28976.42153,1703.627611,21998.98922,17876.45583,-62242.90278,10111.66097,-54652.71975,-0.02,0.1,-0.988,192,0,0,0,0,0,0,0,0,0,0
 2023-06-24 15:08:28.022,-45989.98827,30008.20041,2750.069231,22982.26481,18917.68949,-63270.45718,11151.37472,-55274.88056,-0.02,0.1,-0.988,192,0,0,0,0,0,0,0,0,0,0
 2023-06-24 15:08:28.022,-45787.52616,30796.21116,3523.551348,23784.06659,19690.76928,-63662.05974,11927.49434,-55533.08791,-0.02,0.1,-0.988,192,0,0,0,0,0,0,0,0,0,0
 2023-06-24 15:08:28.022,-45543.04278,30252.66144,2950.944358,23311.93069,19131.59569,-62900.75933,11371.91938,-55088.44466,-0.02,0.1,-0.988,192,0,0,0,0,0,0,0,0,0,0
 2023-06-24 15:08:28.022,-45604.01834,28959.97065,1656.666596,22036.49545,17840.13424,-61959.30385,10087.34227,-54501.39844,-0.02,0.096,-0.99,192,255,96,3,0,225,16,0,0,0,0
 2023-06-24 15:08:28.022,-45858.56001,28951.18641,1673.877439,21975.20697,17854.48406,-62241.71814,10099.21105,-54651.89274,-0.02,0.096,-0.99,192,0,0,0,0,0,0,0,0,0,0
 2023-06-24 15:08:28.022,-45968.24002,29971.18592,2709.009076,22953.74399,18885.05595,-63263.86342,11118.87528,-55270.18669,-0.02,0.096,-0.99,192,0,0,0,0,0,0,0,0,0,0
 2023-06-24 15:08:28.022,-45764.77209,30809.82337,3533.140246,23808.78762,19708.67303,-63668.13942,11949.13083,-55535.23368,-0.02,0.096,-0.99,192,0,0,0,0,0,0,0,0,0,0
 2023-06-24 15:08:28.022,-45508.46464,30371.41626,3067.329892,23423.24238,19244.71787,-62910.66115,11493.89285,-55091.88683,-0.02,0.096,-0.99,192,0,0,0,0,0,0,0,0,0,0
 2023-06-24 15:08:28.022,-45556.23031,29130.89444,1826.361039,22204.53587,18005.80537,-61948.9997,10258.02019,-54493.19535,-0.02,0.096,-0.99,192,0,0,0,0,0,0,0,0,0,0
 2023-06-24 15:08:28.022,-45820.53969,29008.51864,1731.455532,22042.06104,17911.01163,-62221.71333,10158.8008,-54643.19791,-0.02,0.096,-0.99,192,0,0,0,0,0,0,0,0,0,0
 2023-06-24 15:08:28.022,-45935.71823,30005.96523,2743.698984,22990.02087,18920.70698,-63240.72936,11164.94222,-55260.24017,-0.02,0.096,-0.99,192,0,0,0,0,0,0,0,0,0,0
 2023-06-24 15:08:28.022,-45743.98497,30792.41136,3515.214147,23801.32214,19696.31251,-63670.35224,11940.59246,-55541.44747,-0.02,0.096,-0.99,192,0,0,0,0,0,0,0,0,0,0
 2023-06-24 15:08:28.022,-45483.02835,30377.38417,3075.555334,23443.42601,19262.82278,-62930.12952,11510.94723,-55106.97426,-0.02,0.096,-0.99,192,0,0,0,0,0,0,0,0,0,0
 2023-06-24 15:08:28.022,-45517.74061,29166.09844,1860.290988,22244.88077,18046.70907,-61954.47587,10296.35344,-54497.44219,-0.022,0.092,-0.992,192,255,80,2,224,225,0,0,0,0,0
 2023-06-24 15:08:28.500,-45776.86438,29060.03941,1777.835402,22083.36706,17962.35358,-62204.54719,10200.82208,-54630.09979,-0.022,0.092,-0.992,192,0,0,0,0,0,0,0,0,0,0
 2023-06-24 15:08:28.501,-45890.72417,30086.76679,2819.270232,23061.38999,19000.70387,-63218.51173,11237.85362,-55238.67074,-0.022,0.092,-0.992,192,0,0,0,0,0,0,0,0,0,0
 2023-06-24 15:08:28.501,-45698.05213,30919.41397,3640.04864,23912.25385,19817.59308,-63661.92563,12057.51444,-55526.91883,-0.022,0.092,-0.992,192,0,0,0,0,0,0,0,0,0,0
 2023-06-24 15:08:28.501,-45447.62319,30435.78928,3133.066372,23479.74759,19310.02966,-62948.05562,11566.53602,-55113.18804,-0.022,0.092,-0.992,192,0,0,0,0,0,0,0,0,0,0
 2023-06-24 15:08:28.501,-45477.97686,29219.85438,1912.392904,22297.31796,18098.87804,-61960.84612,10351.27167,-54497.21867,-0.022,0.092,-0.992,192,0,0,0,0,0,0,0,0,0,0
 2023-06-24 15:08:28.501,-45738.6429,29083.64285,1795.35917,22125.34364,17983.40893,-62190.53265,10218.63642,-54620.15326,-0.022,0.092,-0.992,192,0,0,0,0,0,0,0,0,0,0
 2023-06-24 15:08:28.501,-45874.09447,29977.77968,2706.37157,22970.46309,18891.42619,-63213.68375,11121.71395,-55240.14595,-0.022,0.092,-0.992,192,0,0,0,0,0,0,0,0,0,0
 2023-06-24 15:08:28.501,-45681.6683,30857.32083,3576.636741,23855.74864,19757.22101,-63673.10151,11988.98399,-55537.4018,-0.022,0.092,-0.992,192,0,0,0,0,0,0,0,0,0,0
 2023-06-24 15:08:28.501,-45426.94782,30411.18001,3106.244279,23465.19661,19283.18522,-62971.94963,11522.63719,-55131.62823,-0.022,0.092,-0.992,192,0,0,0,0,0,0,0,0,0,0
 2023-06-24 15:08:28.501,-45456.65329,29139.20929,1828.015069,22230.10626,18014.63431,-61979.8004,10260.0095,-54514.31775,-0.018,0.092,-0.99,192,255,112,2,224,225,16,0,0,0,0
 2023-06-24 15:08:28.501,-45715.33003,28994.30293,1706.600393,22044.31856,17898.62876,-62190.26443,10134.19153,-54623.43897,-0.018,0.092,-0.99,192,0,0,0,0,0,0,0,0,0,0
 2023-06-24 15:08:28.501,-45845.55129,29972.28115,2700.962448,22968.89847,18881.25615,-63204.29602,11122.47391,-55232.97104,-0.018,0.092,-0.99,192,0,0,0,0,0,0,0,0,0,0
 2023-06-24 15:08:28.501,-45660.4565,30849.11774,3564.633854,23848.66313,19738.78082,-63684.90323,11984.35718,-55542.87798,-0.018,0.092,-0.99,192,0,0,0,0,0,0,0,0,0,0
 2023-06-24 15:08:28.501,-45404.59608,30418.39962,3104.523194,23482.31804,19295.99277,-63002.05743,11530.77323,-55147.81089,-0.018,0.092,-0.99,192,0,0,0,0,0,0,0,0,0,0
 2023-06-24 15:08:28.501,-45430.21118,29128.03341,1807.004429,22228.02755,18012.64501,-62000.29695,10242.32927,-54524.86778,-0.018,0.092,-0.99,192,0,0,0,0,0,0,0,0,0,0
 2023-06-24 15:08:28.501,-45684.93166,28975.75098,1684.002779,22015.21659,17877.66282,-62186.0176,10118.99234,-54619.77328,-0.018,0.092,-0.99,192,0,0,0,0,0,0,0,0,0,0
 2023-06-24 15:08:28.501,-45822.43959,29900.35324,2629.012183,22888.23103,18809.41764,-63196.13763,11054.79283,-55230.08767,-0.018,0.092,-0.99,192,0,0,0,0,0,0,0,0,0,0
 2023-06-24 15:08:28.501,-45647.64895,30745.71857,3462.486382,23742.98409,19644.79174,-63697.95665,11888.62465,-55555.84199,-0.018,0.092,-0.99,192,0,0,0,0,0,0,0,0,0,0
 2023-06-24 15:08:28.501,-45379.67388,30443.45593,3132.664041,23500.3559,19330.05683,-63020.09529,11570.46992,-55161.13253,-0.018,0.092,-0.99,192,0,0,0,0,0,0,0,0,0,0
 2023-06-24 15:08:28.501,-45401.46683,29139.27634,1822.494188,22228.94397,18023.35149,-62009.97526,10262.53525,-54535.4625,-0.018,0.094,-0.986,192,255,112,2,240,225,48,0,0,0,0
 2023-06-24 15:08:28.501,-45657.43901,28939.85408,1648.329395,21968.05441,17840.58128,-62178.79798,10077.64162,-54623.12604,-0.018,0.094,-0.986,192,0,0,0,0,0,0,0,0,0,0
 2023-06-24 15:08:28.501,-45790.74482,29914.5466,2639.986889,22898.06579,18832.37288,-63179.08325,11057.16211,-55224.76795,-0.018,0.094,-0.986,192,0,0,0,0,0,0,0,0,0,0
 2023-06-24 15:08:28.501,-45605.24769,30863.51226,3579.877744,23859.99547,19767.9722,-63687.47368,11985.47476,-55550.8799,-0.018,0.094,-0.986,192,0,0,0,0,0,0,0,0,0,0
 2023-06-24 15:08:28.501,-45342.1006,30507.60543,3199.428701,23563.45487,19393.89341,-63031.94172,11622.86241,-55173.91773,-0.018,0.094,-0.986,192,0,0,0,0,0,0,0,0,0,0
 2023-06-24 15:08:28.501,-45351.77891,29244.75422,1933.180026,22330.68911,18137.72537,-62007.04718,10363.34161,-54537.74238,-0.018,0.094,-0.986,192,0,0,0,0,0,0,0,0,0,0
 2023-06-24 15:08:28.501,-45612.53436,28967.0338,1678.705416,22018.43524,17885.21771,-62162.3471,10101.62504,-54617.82868,-0.018,0.094,-0.986,192,0,0,0,0,0,0,0,0,0,0
 2023-06-24 15:08:28.501,-45756.569,29904.913,2632.521407,22899.11633,18833.15519,-63162.45355,11055.75395,-55220.3423,-0.018,0.094,-0.986,192,0,0,0,0,0,0,0,0,0,0
 2023-06-24 15:08:28.501,-45581.59954,30834.47735,3548.294729,23842.56111,19753.57768,-63692.74869,11979.4845,-55562.01107,-0.018,0.094,-0.986,192,0,0,0,0,0,0,0,0,0,0
 2023-06-24 15:08:28.501,-45317.02194,30501.34695,3190.845631,23568.14874,19401.29184,-63053.33234,11636.25111,-55194.97307,-0.018,0.094,-0.986,192,0,0,0,0,0,0,0,0,0,0
 2023-06-24 15:08:28.501,-45323.57101,29223.40831,1908.682514,22317.00984,18121.74387,-62018.67008,10366.18028,-54553.83564,-0.018,0.096,-0.982,192,255,112,3,0,225,80,0,0,0,0
 2023-06-24 15:08:28.501,-45576.81627,28974.32047,1685.098014,22026.45952,17896.28183,-62143.1246,10153.61519,-54614.69944,-0.018,0.096,-0.982,192,0,0,0,0,0,0,0,0,0,0
 2023-06-24 15:08:28.501,-45721.18619,29927.48826,2663.322111,22911.6333,18855.03755,-63133.08336,11101.46327,-55209.81463,-0.018,0.096,-0.982,192,0,0,0,0,0,0,0,0,0,0
 2023-06-24 15:08:28.501,-45557.68318,30827.74947,3557.928331,23824.00916,19738.49025,-63686.95959,11971.50492,-55565.25207,-0.018,0.096,-0.982,192,0,0,0,0,0,0,0,0,0,0
 2023-06-24 15:08:28.501,-45299.54288,30476.80473,3180.653236,23544.29943,19365.17142,-63073.69477,11596.30854,-55213.99441,-0.018,0.096,-0.982,192,0,0,0,0,0,0,0,0,0,0
 2023-06-24 15:08:28.501,-45304.32615,29191.08769,1888.051854,22289.85247,18075.72163,-62037.75847,10317.65465,-54572.34288,-0.018,0.096,-0.982,192,0,0,0,0,0,0,0,0,0,0
 2023-06-24 15:08:28.501,-45555.3586,28940.50228,1658.342976,21990.80849,17847.57737,-62141.93995,10089.30923,-54621.20379,-0.018,0.096,-0.982,192,0,0,0,0,0,0,0,0,0,0
 2023-06-24 15:08:28.501,-45707.81984,29850.37474,2582.252333,22853.83169,18770.19033,-63130.11058,11010.49167,-55215.53668,-0.018,0.096,-0.982,192,0,0,0,0,0,0,0,0,0,0
 2023-06-24 15:08:28.501,-45540.49469,30810.04689,3533.587281,23817.63891,19715.51266,-63694.69329,11959.41263,-55577.32202,-0.018,0.096,-0.982,192,0,0,0,0,0,0,0,0,0,0
 2023-06-24 15:08:28.501,-45265.12119,30573.02899,3272.31774,23619.71421,19453.99725,-63082.92604,11719.04197,-55226.39963,-0.018,0.096,-0.982,192,0,0,0,0,0,0,0,0,0,0
 2023-06-24 15:08:28.501,-45257.25338,29303.78518,1994.08853,22388.96011,18188.26266,-62032.46111,10436.70004,-54576.76853,-0.014,0.094,-0.98,192,255,144,2,240,225,96,0,0,0,0
 2023-06-24 15:08:28.501,-45515.1031,28966.60912,1677.945456,22028.85115,17876.25466,-62125.64553,10101.91561,-54618.96862,-0.014,0.094,-0.98,192,0,0,0,0,0,0,0,0,0,0
 2023-06-24 15:08:28.501,-45669.91129,29874.02289,2603.106511,22878.99976,18789.90457,-63107.98235,11025.40028,-55207.93709,-0.014,0.094,-0.98,192,0,0,0,0,0,0,0,0,0,0
 2023-06-24 15:08:28.501,-45506.94472,30855.44328,3577.284941,23854.98868,19755.20936,-63688.18893,12004.47375,-55578.08197,-0.014,0.094,-0.98,192,0,0,0,0,0,0,0,0,0,0
 2023-06-24 15:08:28.501,-45238.70143,30584.47308,3282.487784,23636.74624,19463.63085,-63103.04261,11710.21303,-55245.48802,-0.014,0.094,-0.98,192,0,0,0,0,0,0,0,0,0,0
 2023-06-24 15:08:28.501,-45231.57123,29269.56466,1960.024471,22359.4111,18147.04605,-62053.82938,10385.42514,-54598.40502,-0.014,0.094,-0.98,192,0,0,0,0,0,0,0,0,0,0
 2023-06-24 15:08:28.501,-45489.73387,28895.91055,1609.906746,21933.07393,17793.48615,-62127.836,10041.47649,-54629.80922,-0.014,0.094,-0.98,192,0,0,0,0,0,0,0,0,0,0
 2023-06-24 15:08:28.501,-45641.97161,29836.13668,2567.34372,22817.24189,18745.82693,-63098.54991,10983.31195,-55210.90987,-0.014,0.094,-0.98,192,0,0,0,0,0,0,0,0,0,0
 2023-06-24 15:08:28.501,-45481.93311,30821.17806,3543.086772,23827.02664,19723.38047,-63695.29679,11939.20665,-55590.88952,-0.014,0.094,-0.98,192,0,0,0,0,0,0,0,0,0,0
 2023-06-24 15:08:28.502,-45220.84239,30503.06803,3202.848518,23576.19537,19389.9148,-63135.72087,11601.80707,-55275.52876,-0.014,0.094,-0.98,192,0,0,0,0,0,0,0,0,0,0
 2023-06-24 15:08:28.502,-45209.21948,29194.01576,1888.275372,22280.66591,18072.34652,-62082.17139,10302.50016,-54625.42827,-0.018,0.094,-0.988,192,255,112,2,240,225,32,0,0,0,0
 2023-06-24 15:08:28.502,-45460.05076,28849.82125,1565.806754,21882.40253,17745.80988,-62132.19459,9990.782737,-54639.57693,-0.018,0.094,-0.988,192,0,0,0,0,0,0,0,0,0,0
 2023-06-24 15:08:28.502,-45620.49158,29748.0261,2479.814289,22724.10217,18655.45883,-63101.34388,10906.24313,-55218.04008,-0.018,0.094,-0.988,192,0,0,0,0,0,0,0,0,0,0
 2023-06-24 15:08:28.502,-45467.38213,30743.84102,3465.101536,23734.33396,19644.67998,-63715.39101,11888.78112,-55608.05566,-0.018,0.094,-0.988,192,0,0,0,0,0,0,0,0,0,0
 2023-06-24 15:08:28.502,-45193.17093,30539.09904,3233.939795,23613.92511,19427.53278,-63163.90641,11643.58248,-55293.45486,-0.018,0.094,-0.988,192,0,0,0,0,0,0,0,0,0,0
 2023-06-24 15:08:28.502,-45177.36824,29202.04004,1885.906087,22313.79119,18078.53795,-62104.769,10296.24168,-54638.21347,-0.018,0.094,-0.988,192,0,0,0,0,0,0,0,0,0,0
 2023-06-24 15:08:28.502,-45419.23647,28875.16813,1581.743548,21924.40145,17765.36766,-62125.71259,10005.57959,-54633.00552,-0.018,0.094,-0.988,192,0,0,0,0,0,0,0,0,0,0
 2023-06-24 15:08:28.502,-45575.47517,29800.28448,2529.569272,22783.44605,18703.24686,-63080.35559,10948.57734,-55203.0197,-0.018,0.094,-0.988,192,0,0,0,0,0,0,0,0,0,0
 2023-06-24 15:08:28.502,-45422.87981,30842.52397,3563.717432,23833.66511,19736.83622,-63705.7574,11976.60112,-55598.37736,-0.018,0.094,-0.988,192,0,0,0,0,0,0,0,0,0,0
 2023-06-24 15:08:28.502,-45159.41979,30593.61495,3288.813327,23641.93185,19459.85341,-63178.27859,11704.53569,-55301.65795,-0.018,0.094,-0.988,192,0,0,0,0,0,0,0,0,0,0
 2023-06-24 15:08:28.502,-45141.38194,29250.1857,1937.180988,22330.75617,18113.87606,-62113.46383,10378.09376,-54645.85777,-0.018,0.096,-0.988,192,255,112,3,0,225,32,0,0,0,0
 2023-06-24 15:08:28.502,-45381.81965,28902.81724,1613.997115,21944.11569,17797.44241,-62112.21213,10060.07314,-54627.59639,-0.018,0.096,-0.988,192,0,0,0,0,0,0,0,0,0,0
 2023-06-24 15:08:28.502,-45547.73665,29762.1077,2491.884231,22750.07489,18671.1274,-63067.81627,10927.23142,-55197.72234,-0.018,0.096,-0.988,192,0,0,0,0,0,0,0,0,0,0
 2023-06-24 15:08:28.502,-45411.14514,30712.63799,3431.618623,23702.34861,19607.37492,-63722.87884,11849.48675,-55611.40843,-0.018,0.096,-0.988,192,0,0,0,0,0,0,0,0,0,0
 2023-06-24 15:08:28.502,-45143.08067,30513.84157,3214.717295,23549.52974,19384.32686,-63211.22506,11617.74386,-55322.08745,-0.018,0.096,-0.988,192,0,0,0,0,0,0,0,0,0,0
 2023-06-24 15:08:28.502,-45108.59193,29260.60161,1954.682404,22329.57152,18126.23657,-62131.05466,10363.7663,-54655.13374,-0.018,0.096,-0.988,192,0,0,0,0,0,0,0,0,0,0
 2023-06-24 15:08:28.502,-45351.06365,28870.83189,1589.186679,21891.14206,17757.23162,-62110.69222,10004.73023,-54626.3447,-0.018,0.096,-0.988,192,0,0,0,0,0,0,0,0,0,0
 2023-06-24 15:08:28.502,-45513.44907,29777.08337,2513.319554,22746.83389,18678.79405,-63051.05246,10924.21394,-55187.86522,-0.018,0.096,-0.988,192,0,0,0,0,0,0,0,0,0,0
 2023-06-24 15:08:28.502,-45363.46887,30870.86599,3594.808709,23845.24332,19763.94889,-63701.8235,12011.35808,-55600.54548,-0.018,0.096,-0.988,192,0,0,0,0,0,0,0,0,0,0
 2023-06-24 15:08:28.502,-45087.49188,30727.85952,3427.707067,23752.72945,19598.00954,-63201.25618,11847.00571,-55321.21573,-0.018,0.096,-0.988,192,0,0,0,0,0,0,0,0,0,0
 2023-06-24 15:08:28.502,-45057.31703,29385.68197,2075.538287,22466.81124,18254.42383,-62127.99247,10488.28786,-54663.60505,-0.018,0.096,-0.986,192,255,112,3,0,225,48,0,0,0,0
 2023-06-24 15:08:28.502,-45305.84607,28907.53346,1619.607403,21944.2051,17793.59791,-62093.68254,10033.02753,-54628.44576,-0.018,0.096,-0.986,192,0,0,0,0,0,0,0,0,0,0
 2023-06-24 15:08:28.502,-45483.25187,29714.05145,2442.397468,22699.11292,18616.36563,-63036.92615,10860.98085,-55191.91089,-0.018,0.096,-0.986,192,0,0,0,0,0,0,0,0,0,0
 2023-06-24 15:08:28.502,-45347.30856,30773.25592,3492.035388,23755.3446,19667.12113,-63713.24524,11923.851,-55618.11395,-0.018,0.096,-0.986,192,0,0,0,0,0,0,0,0,0,0
 2023-06-24 15:08:28.502,-45063.17318,30723.94797,3421.627393,23747.11916,19594.47796,-63226.31249,11842.98239,-55345.2215,-0.018,0.096,-0.986,192,0,0,0,0,0,0,0,0,0,0
 2023-06-24 15:08:28.502,-45019.43082,29443.39418,2128.958956,22506.61969,18303.3965,-62142.23053,10552.34796,-54680.88295,-0.018,0.096,-0.986,192,0,0,0,0,0,0,0,0,0,0
 2023-06-24 15:08:28.502,-45257.96864,28995.44287,1701.504195,22022.79383,17878.44513,-62078.32689,10120.55696,-54625.45063,-0.018,0.096,-0.986,192,0,0,0,0,0,0,0,0,0,0
 2023-06-24 15:08:28.502,-45435.10621,29811.41565,2537.347679,22792.16323,18711.56171,-63008.94177,10951.66188,-55178.29867,-0.018,0.096,-0.986,192,0,0,0,0,0,0,0,0,0,0
 2023-06-24 15:08:28.502,-45317.0443,30781.14608,3501.892507,23758.60795,19667.88109,-63710.2054,11912.69748,-55621.9361,-0.018,0.096,-0.986,192,0,0,0,0,0,0,0,0,0,0
 2023-06-24 15:08:28.502,-45040.03913,30689.1463,3388.457404,23707.98125,19548.90276,-63247.74781,11790.00876,-55363.30406,-0.018,0.096,-0.986,192,0,0,0,0,0,0,0,0,0,0
 2023-06-24 15:08:28.502,-44981.72343,29464.09189,2152.897674,22518.22025,18312.13603,-62151.66296,10555.32075,-54689.89071,-0.02,0.094,-0.982,192,255,96,2,240,225,80,0,0,0,0
 2023-06-24 15:08:28.502,-45224.03869,28955.07562,1665.0485,21980.92901,17834.36749,-62069.38619,10076.79225,-54626.23294,-0.02,0.094,-0.982,192,0,0,0,0,0,0,0,0,0,0
 2023-06-24 15:08:28.502,-45410.0052,29728.87066,2455.719108,22706.44429,18625.32867,-62996.73772,10865.33944,-55180.33268,-0.02,0.094,-0.982,192,0,0,0,0,0,0,0,0,0,0
 2023-06-24 15:08:28.502,-45286.02007,30811.20918,3527.753476,23787.08408,19697.05012,-63704.08102,11933.61872,-55625.95941,-0.02,0.094,-0.982,192,0,0,0,0,0,0,0,0,0,0
 2023-06-24 15:08:28.502,-45006.10918,30777.81567,3466.554399,23809.70404,19641.43898,-63258.18607,11880.13099,-55377.20685,-0.02,0.094,-0.982,192,0,0,0,0,0,0,0,0,0,0
 2023-06-24 15:08:28.502,-44952.39794,29494.37851,2172.544858,22569.04811,18350.91631,-62168.94086,10575.32556,-54709.56024,-0.02,0.094,-0.982,192,0,0,0,0,0,0,0,0,0,0
 2023-06-24 15:08:28.502,-45187.15831,29022.35437,1726.024059,22052.40989,17897.1759,-62057.76329,10128.89417,-54625.85296,-0.02,0.094,-0.982,192,0,0,0,0,0,0,0,0,0,0
 2023-06-24 15:08:28.502,-45367.7604,29811.70622,2539.225225,22785.4577,18701.99516,-62967.88162,10941.35772,-55165.55818,-0.02,0.094,-0.982,192,0,0,0,0,0,0,0,0,0,0
 2023-06-24 15:08:28.502,-45248.62561,30868.65316,3594.540488,23843.29871,19752.84007,-63690.24529,11991.7556,-55619.76798,-0.02,0.094,-0.982,192,0,0,0,0,0,0,0,0,0,0
 2023-06-24 15:08:28.502,-44968.31238,30837.18191,3538.594072,23873.96531,19702.92863,-63263.5952,11944.66048,-55384.24765,-0.02,0.094,-0.982,192,0,0,0,0,0,0,0,0,0,0
 2023-06-24 15:08:28.502,-44910.62253,29528.01788,2215.281393,22610.75647,18389.62953,-62174.70761,10633.68596,-54716.89161,-0.026,0.094,-0.986,192,255,48,2,240,225,48,0,0,0,0
 2023-06-24 15:08:28.502,-45158.1681,28939.09412,1645.222502,21980.52668,17820.50941,-62054.18701,10064.23057,-54630.05509,-0.026,0.094,-0.986,192,0,0,0,0,0,0,0,0,0,0
 2023-06-24 15:08:28.502,-45356.91981,29650.03605,2376.348064,22631.83417,18542.20254,-62968.59687,10785.85664,-55175.95174,-0.026,0.094,-0.986,192,0,0,0,0,0,0,0,0,0,0
 2023-06-24 15:08:28.502,-45250.34669,30687.71579,3409.42334,23668.37396,19573.55673,-63713.46876,11807.80075,-55645.27132,-0.026,0.094,-0.986,192,0,0,0,0,0,0,0,0,0,0
 2023-06-24 15:08:28.502,-44971.86631,30697.14823,3394.402968,23721.97345,19559.51983,-63306.86817,11798.99416,-55421.84328,-0.026,0.094,-0.986,192,0,0,0,0,0,0,0,0,0,0
 2023-06-24 15:08:28.502,-44900.38543,29453.02778,2137.564377,22522.0871,18307.26335,-62209.15165,10554.18081,-54748.29581,-0.026,0.094,-0.986,192,0,0,0,0,0,0,0,0,0,0
 2023-06-24 15:08:28.502,-45139.79496,28860.77361,1565.940865,21895.43359,17738.14323,-62061.16075,9977.617559,-54643.89082,-0.026,0.094,-0.986,192,0,0,0,0,0,0,0,0,0,0
 2023-06-24 15:08:28.502,-45332.53405,29609.60175,2332.672755,22590.25992,18503.9587,-62958.47153,10746.2717,-55177.80694,-0.026,0.094,-0.986,192,0,0,0,0,0,0,0,0,0,0
 2023-06-24 15:08:28.502,-45219.0766,30727.41249,3453.411574,23697.74415,19616.0921,-63706.3162,11857.7569,-55646.54537,-0.026,0.094,-0.986,192,0,0,0,0,0,0,0,0,0,0
 2023-06-24 15:08:28.502,-44944.23955,30749.47366,3455.467934,23775.99761,19620.78597,-63320.16746,11855.9017,-55434.22615,-0.026,0.094,-0.986,192,0,0,0,0,0,0,0,0,0,0
 2023-06-24 15:08:28.502,-44864.80145,29550.16846,2243.802219,22621.61942,18411.51189,-62220.88632,10648.59458,-54757.99647,-0.024,0.094,-0.986,192,255,64,2,240,225,48,0,0,0,0
 2023-06-24 15:08:28.502,-45094.35387,28993.54297,1708.165015,22028.89586,17872.52192,-62043.05584,10112.08565,-54633.09492,-0.024,0.094,-0.986,192,0,0,0,0,0,0,0,0,0,0
 2023-06-24 15:08:28.502,-45290.08809,29722.29924,2454.400355,22710.4676,18619.40546,-62928.14021,10861.80787,-55158.60679,-0.024,0.094,-0.986,192,0,0,0,0,0,0,0,0,0,0
 2023-06-24 15:08:28.502,-45181.16804,30848.98363,3575.47445,23825.48437,19742.11123,-63687.58544,11978.41161,-55634.25191,-0.024,0.094,-0.986,192,0,0,0,0,0,0,0,0,0,0
 2023-06-24 15:08:28.502,-44910.89075,30838.54536,3543.757325,23866.90216,19715.75853,-63324.03431,11946.42627,-55438.76355,-0.024,0.094,-0.986,192,0,0,0,0,0,0,0,0,0,0
 2023-06-24 15:08:28.502,-44834.26897,29572.34139,2264.634045,22653.53771,18442.31259,-62232.53158,10657.26705,-54772.70392,-0.024,0.094,-0.986,192,0,0,0,0,0,0,0,0,0,0
 2023-06-24 15:08:28.502,-45067.21885,28960.61885,1671.508154,22015.03778,17851.82421,-62035.61271,10068.94679,-54637.72173,-0.024,0.094,-0.986,192,0,0,0,0,0,0,0,0,0,0
 2023-06-24 15:08:28.502,-45274.8442,29644.80575,2376.996264,22645.51343,18549.22099,-62917.09845,10755.45827,-55160.88666,-0.024,0.094,-0.986,192,0,0,0,0,0,0,0,0,0,0
 2023-06-24 15:08:28.502,-45183.76084,30706.35715,3435.574882,23684.42251,19597.16017,-63703.45517,11809.83476,-55653.00502,-0.024,0.094,-0.986,192,0,0,0,0,0,0,0,0,0,0
 2023-06-24 15:08:28.502,-44907.15801,30784.63296,3487.900315,23800.67394,19653.68773,-63355.59498,11877.6276,-55463.0599,-0.024,0.094,-0.986,192,0,0,0,0,0,0,0,0,0,0
 2023-06-24 15:08:28.503,-44818.95802,29591.22862,2275.966379,22657.65043,18451.52151,-62256.89498,10679.68585,-54789.62419,-0.022,0.094,-0.986,192,255,80,2,240,225,48,0,0,0,0
 2023-06-24 15:08:28.503,-45041.76021,29006.52933,1707.270945,22049.59357,17888.07874,-62028.16958,10110.20811,-54634.65954,-0.022,0.094,-0.986,192,0,0,0,0,0,0,0,0,0,0
 2023-06-24 15:08:28.503,-45252.20189,29646.79505,2366.803869,22638.91967,18547.41049,-62898.59121,10765.11422,-55153.28707,-0.022,0.094,-0.986,192,0,0,0,0,0,0,0,0,0,0
 2023-06-24 15:08:28.503,-45163.3984,30720.25993,3440.872245,23694.32434,19612.98521,-63695.16268,11831.20302,-55653.18384,-0.022,0.094,-0.986,192,0,0,0,0,0,0,0,0,0,0
 2023-06-24 15:08:28.503,-44888.06962,30832.93507,3531.553272,23855.10044,19702.88392,-63363.86512,11922.35344,-55475.91215,-0.022,0.094,-0.986,192,0,0,0,0,0,0,0,0,0,0
 2023-06-24 15:08:28.503,-44797.12037,29651.73479,2334.66206,22715.38499,18499.68952,-62270.44013,10729.35143,-54807.93027,-0.022,0.094,-0.986,192,0,0,0,0,0,0,0,0,0,0
 2023-06-24 15:08:28.503,-45024.19174,29001.50019,1703.895832,22020.35749,17864.34118,-62027.99076,10107.16827,-54646.12599,-0.022,0.094,-0.986,192,0,0,0,0,0,0,0,0,0,0
 2023-06-24 15:08:28.503,-45243.12708,29606.13723,2323.530891,22589.56702,18495.35328,-62889.60581,10718.91316,-55158.31621,-0.022,0.094,-0.986,192,0,0,0,0,0,0,0,0,0,0
 2023-06-24 15:08:28.503,-45155.0165,30726.69723,3445.029669,23701.54395,19614.90746,-63695.29679,11836.58979,-55658.90588,-0.022,0.094,-0.986,192,0,0,0,0,0,0,0,0,0,0
 2023-06-24 15:08:28.503,-44874.54681,30871.693,3570.154735,23890.86323,19744.65933,-63381.41124,11966.20756,-55488.89851,-0.022,0.094,-0.986,192,0,0,0,0,0,0,0,0,0,0
 2023-06-24 15:08:28.503,-44778.3449,29673.48303,2358.868999,22743.30231,18539.58738,-62288.38858,10768.31052,-54820.89428,-0.02,0.096,-0.984,192,255,96,3,0,225,64,0,0,0,0
 2023-06-24 15:08:28.981,-45001.43766,28977.76264,1685.29918,22021.58684,17865.34701,-62025.42031,10093.93604,-54645.47779,-0.02,0.096,-0.984,192,0,0,0,0,0,0,0,0,0,0
 2023-06-24 15:08:28.981,-45216.14852,29616.73196,2345.569711,22605.12383,18517.97325,-62872.28321,10751.74788,-55146.38038,-0.02,0.096,-0.984,192,0,0,0,0,0,0,0,0,0,0
 2023-06-24 15:08:28.981,-45139.12441,30710.08989,3441.475742,23681.18151,19607.39727,-63697.46491,11844.23409,-55661.6775,-0.02,0.096,-0.984,192,0,0,0,0,0,0,0,0,0,0
 2023-06-24 15:08:28.981,-44863.77327,30854.48216,3563.851543,23871.12664,19734.19872,-63408.27804,11965.4029,-55508.70216,-0.02,0.096,-0.984,192,0,0,0,0,0,0,0,0,0,0
 2023-06-24 15:08:28.982,-44768.89011,29614.00504,2301.760292,22697.14596,18487.37371,-62325.51483,10714.62163,-54848.20811,-0.02,0.096,-0.984,192,0,0,0,0,0,0,0,0,0,0
 2023-06-24 15:08:28.982,-44993.41339,28876.30807,1581.005941,21929.14002,17766.77582,-62044.08402,10002.22683,-54663.06861,-0.02,0.096,-0.984,192,0,0,0,0,0,0,0,0,0,0
 2023-06-24 15:08:28.982,-45211.25349,29477.56999,2204.977239,22474.52259,18387.17084,-62878.31818,10613.92702,-55157.22098,-0.02,0.096,-0.984,192,0,0,0,0,0,0,0,0,0,0
 2023-06-24 15:08:28.982,-45131.16719,30642.14058,3369.704291,23628.07377,19550.40032,-63706.53972,11766.51707,-55671.82519,-0.02,0.096,-0.984,192,0,0,0,0,0,0,0,0,0,0
 2023-06-24 15:08:28.982,-44864.93556,30745.24918,3451.690489,23769.18033,19630.68779,-63443.66085,11857.77925,-55535.07722,-0.02,0.096,-0.984,192,0,0,0,0,0,0,0,0,0,0
 2023-06-24 15:08:28.982,-44755.03203,29593.24027,2286.024664,22664.2889,18468.59824,-62353.9239,10702.0376,-54868.65996,-0.02,0.094,-0.99,192,255,96,2,240,225,16,0,0,0,0
 2023-06-24 15:08:28.982,-44960.39986,28959.45656,1673.318645,22004.64422,17850.55016,-62037.24438,10076.7699,-54659.38057,-0.02,0.094,-0.99,192,0,0,0,0,0,0,0,0,0,0
 2023-06-24 15:08:28.982,-45175.75892,29586.37829,2324.335554,22571.39505,18487.64193,-62855.31823,10716.52153,-55141.88768,-0.02,0.094,-0.99,192,0,0,0,0,0,0,0,0,0,0
 2023-06-24 15:08:28.982,-45109.44129,30665.81108,3402.583707,23639.00377,19563.69961,-63704.79628,11799.08357,-55670.64055,-0.02,0.094,-0.99,192,0,0,0,0,0,0,0,0,0,0
 2023-06-24 15:08:28.982,-44837.42056,30836.42195,3548.227674,23855.86039,19712.83045,-63455.12729,11942.96175,-55540.73221,-0.02,0.094,-0.99,192,0,0,0,0,0,0,0,0,0,0
 2023-06-24 15:08:28.982,-44723.35961,29692.68318,2383.61238,22760.55786,18558.3405,-62365.68092,10799.11122,-54876.34896,-0.02,0.094,-0.99,192,0,0,0,0,0,0,0,0,0,0
 2023-06-24 15:08:28.982,-44935.03063,28957.66842,1661.092241,22006.70058,17857.27803,-62035.16567,10086.33644,-54659.80526,-0.02,0.094,-0.99,192,0,0,0,0,0,0,0,0,0,0
 2023-06-24 15:08:28.982,-45150.68026,29585.68538,2309.404589,22573.98785,18498.57193,-62838.21915,10709.59249,-55132.09762,-0.02,0.094,-0.99,192,0,0,0,0,0,0,0,0,0,0
 2023-06-24 15:08:28.982,-45088.22949,30685.01123,3408.216346,23653.51005,19594.3662,-63695.4309,11807.33136,-55665.67846,-0.02,0.094,-0.99,192,0,0,0,0,0,0,0,0,0,0
 2023-06-24 15:08:28.982,-44819.71798,30865.61333,3567.561933,23873.71944,19755.20936,-63467.19724,11966.1405,-55550.43287,-0.02,0.094,-0.99,192,0,0,0,0,0,0,0,0,0,0
 2023-06-24 15:08:28.982,-44700.762,29736.80553,2418.794026,22795.96302,18612.05174,-62380.38836,10837.04213,-54887.8154,-0.024,0.096,-0.988,192,255,64,3,0,225,32,0,0,0,0
 2023-06-24 15:08:28.982,-44907.69445,28995.48757,1696.005666,22031.89099,17890.42567,-62026.00146,10123.52975,-54656.65366,-0.024,0.096,-0.988,192,0,0,0,0,0,0,0,0,0,0
 2023-06-24 15:08:28.982,-45133.58118,29558.37155,2283.141289,22530.08902,18468.91117,-62821.0083,10705.8821,-55125.70502,-0.024,0.096,-0.988,192,0,0,0,0,0,0,0,0,0,0
 2023-06-24 15:08:28.982,-45070.86218,30709.41934,3430.344573,23677.87345,19620.09306,-63685.50672,11836.031,-55661.09635,-0.024,0.096,-0.988,192,0,0,0,0,0,0,0,0,0,0
 2023-06-24 15:08:28.982,-44805.9046,30866.17212,3563.851543,23894.75243,19756.30459,-63479.60245,11951.00837,-55561.09465,-0.024,0.096,-0.988,192,0,0,0,0,0,0,0,0,0,0
 2023-06-24 15:08:28.982,-44686.41218,29712.19626,2394.341218,22777.96987,18578.12179,-62400.34847,10797.83717,-54905.96502,-0.024,0.096,-0.988,192,0,0,0,0,0,0,0,0,0,0
 2023-06-24 15:08:28.982,-44885.00743,28984.49051,1683.958076,22019.77635,17866.4199,-62024.12391,10096.55119,-54660.22994,-0.024,0.096,-0.988,192,0,0,0,0,0,0,0,0,0,0
 2023-06-24 15:08:28.982,-45105.32857,29578.93516,2301.737941,22571.66327,18486.5914,-62800.93644,10704.45159,-55115.8479,-0.024,0.096,-0.988,192,0,0,0,0,0,0,0,0,0,0
 2023-06-24 15:08:28.982,-45057.33938,30655.50693,3380.790756,23638.55674,19562.76084,-63684.18797,11779.41403,-55663.93503,-0.024,0.096,-0.988,192,0,0,0,0,0,0,0,0,0,0
 2023-06-24 15:08:28.982,-44785.13983,30889.46264,3592.282962,23914.64548,19780.01979,-63494.35461,12005.32311,-55569.52126,-0.024,0.096,-0.988,192,0,0,0,0,0,0,0,0,0,0
 2023-06-24 15:08:28.982,-44656.70671,29762.39827,2444.34207,22839.66069,18638.76207,-62417.51461,10878.77284,-54914.14576,-0.024,0.098,-0.99,192,255,64,3,16,225,16,0,0,0,0
 2023-06-24 15:08:28.982,-44850.83161,29007.26694,1710.199024,22052.20873,17899.7687,-62018.75949,10134.97384,-54653.70323,-0.024,0.098,-0.99,192,0,0,0,0,0,0,0,0,0,0
 2023-06-24 15:08:28.982,-45080.47343,29513.04221,2239.913015,22504.60804,18419.62557,-62789.15707,10652.61789,-55105.54375,-0.024,0.098,-0.99,192,0,0,0,0,0,0,0,0,0,0
 2023-06-24 15:08:28.982,-45037.55808,30615.27379,3344.759744,23593.11564,19522.25948,-63680.6564,11747.09341,-55658.57061,-0.024,0.098,-0.99,192,0,0,0,0,0,0,0,0,0,0
 2023-06-24 15:08:28.982,-44761.29052,30919.6822,3631.443218,23940.72997,19811.44635,-63503.11649,12027.71956,-55572.6505,-0.024,0.098,-0.99,192,0,0,0,0,0,0,0,0,0,0
 2023-06-24 15:08:28.982,-44631.09161,29805.82771,2497.89685,22880.13969,18678.97286,-62432.35617,10894.17319,-54923.30997,-0.024,0.098,-0.99,192,0,0,0,0,0,0,0,0,0,0
 2023-06-24 15:08:28.982,-44829.79862,28978.43319,1685.925029,22025.38663,17868.05157,-62017.57485,10092.39377,-54657.32421,-0.024,0.098,-0.99,192,0,0,0,0,0,0,0,0,0,0
 2023-06-24 15:08:28.982,-45061.76502,29486.91302,2219.036486,22472.62269,18396.02213,-62772.9297,10623.42651,-55101.36397,-0.024,0.098,-0.99,192,0,0,0,0,0,0,0,0,0,0
 2023-06-24 15:08:28.982,-45018.6038,30637.40201,3374.30875,23598.10008,19545.54999,-63668.89938,11778.54231,-55655.64253,-0.024,0.098,-0.99,192,0,0,0,0,0,0,0,0,0,0
 2023-06-24 15:08:28.982,-44751.4334,30886.44515,3599.122596,23897.41229,19779.10337,-63518.89682,11997.07532,-55589.34725,-0.024,0.098,-0.99,192,0,0,0,0,0,0,0,0,0,0
 2023-06-24 15:08:28.982,-44614.66308,29785.71114,2477.087376,22856.24568,18664.57834,-62451.17634,10888.22763,-54941.70546,-0.022,0.092,-0.986,192,255,80,2,224,225,48,0,0,0,0
 2023-06-24 15:08:28.982,-44810.48671,28938.60238,1646.518904,21983.343,17829.83009,-62016.68078,10057.30153,-54661.32518,-0.022,0.092,-0.986,192,0,0,0,0,0,0,0,0,0,0
 2023-06-24 15:08:28.983,-45038.76508,29478.84404,2207.435931,22466.07363,18389.85305,-62756.34471,10615.71516,-55093.36204,-0.022,0.092,-0.986,192,0,0,0,0,0,0,0,0,0,0
 2023-06-24 15:08:28.983,-44993.14517,30682.64195,3409.848024,23656.84046,19593.31567,-63657.58939,11813.74631,-55648.91465,-0.022,0.092,-0.986,192,0,0,0,0,0,0,0,0,0,0
 2023-06-24 15:08:28.983,-44733.01557,30908.05929,3611.840738,23925.1508,19795.04017,-63535.43711,12004.20553,-55598.75734,-0.022,0.092,-0.986,192,0,0,0,0,0,0,0,0,0,0
 2023-06-24 15:08:28.983,-44592.26663,29814.0308,2502.277792,22872.65186,18680.91746,-62475.51739,10890.73102,-54956.79289,-0.022,0.092,-0.986,192,0,0,0,0,0,0,0,0,0,0
 2023-06-24 15:08:28.983,-44769.58302,29036.77124,1737.95989,22067.1844,17916.33134,-62005.88489,10139.06421,-54652.89857,-0.022,0.092,-0.986,192,0,0,0,0,0,0,0,0,0,0
 2023-06-24 15:08:28.983,-45008.23259,29468.13756,2190.89564,22438.67039,18355.45371,-62739.11151,10579.34887,-55083.43787,-0.022,0.092,-0.986,192,0,0,0,0,0,0,0,0,0,0
 2023-06-24 15:08:28.983,-44977.05191,30617.3972,3343.68686,23577.98351,19507.44027,-63658.41641,11710.61536,-55649.40639,-0.022,0.092,-0.986,192,0,0,0,0,0,0,0,0,0,0
 2023-06-24 15:08:28.983,-44703.80184,30985.41868,3692.19526,23992.87659,19860.86605,-63543.08141,12063.54941,-55599.65141,-0.022,0.092,-0.986,192,0,0,0,0,0,0,0,0,0,0
 2023-06-24 15:08:28.983,-44553.10637,29928.04705,2616.249337,22997.59811,18794.82195,-62486.20152,10995.33719,-54959.85507,-0.022,0.094,-0.984,192,255,80,2,240,225,64,0,0,0,0
 2023-06-24 15:08:28.983,-44738.17882,29054.54088,1755.595416,22097.04633,17933.09515,-62005.77313,10151.60354,-54650.37282,-0.022,0.094,-0.984,192,0,0,0,0,0,0,0,0,0,0
 2023-06-24 15:08:28.983,-44973.40858,29516.14911,2241.12001,22494.59445,18407.95796,-62720.76073,10641.35261,-55068.43985,-0.022,0.094,-0.984,192,0,0,0,0,0,0,0,0,0,0
 2023-06-24 15:08:28.983,-44951.61563,30633.64692,3363.736375,23605.23028,19536.51989,-63650.43684,11761.77851,-55641.44917,-0.022,0.094,-0.984,192,0,0,0,0,0,0,0,0,0,0
 2023-06-24 15:08:28.983,-44692.15658,30942.77155,3653.929073,23967.86499,19830.19946,-63565.58961,12038.56016,-55612.63777,-0.022,0.094,-0.984,192,0,0,0,0,0,0,0,0,0,0
 2023-06-24 15:08:28.983,-44536.20846,29919.91102,2614.796473,22990.80318,18784.83072,-62513.06832,10998.24291,-54976.70829,-0.022,0.094,-0.984,192,0,0,0,0,0,0,0,0,0,0
 2023-06-24 15:08:28.983,-44721.05738,28988.55853,1699.224317,22036.49545,17875.67352,-62013.1492,10091.65616,-54658.68767,-0.022,0.094,-0.984,192,0,0,0,0,0,0,0,0,0,0
 2023-06-24 15:08:28.983,-44959.34933,29406.91613,2136.804418,22404.8075,18315.28763,-62717.74324,10537.30524,-55070.56327,-0.022,0.094,-0.984,192,0,0,0,0,0,0,0,0,0,0
 2023-06-24 15:08:28.983,-44942.42906,30532.1253,3266.774507,23508.51429,19442.37434,-63655.48833,11663.98962,-55648.95936,-0.022,0.094,-0.984,192,0,0,0,0,0,0,0,0,0,0
 2023-06-24 15:08:28.983,-44674.09637,30946.41488,3664.948483,23961.94177,19840.52597,-63582.82281,12045.13157,-55626.20528,-0.022,0.094,-0.984,192,0,0,0,0,0,0,0,0,0,0
 2023-06-24 15:08:28.983,-44518.23765,29906.58938,2604.693485,22983.71768,18783.93665,-62543.44434,10984.78716,-54998.50124,-0.018,0.096,-0.99,192,255,112,3,0,225,16,0,0,0,0
 2023-06-24 15:08:28.983,-44694.63762,28997.87921,1707.740332,22055.53914,17887.25172,-62016.59137,10102.63087,-54662.06278,-0.018,0.096,-0.99,192,0,0,0,0,0,0,0,0,0,0
 2023-06-24 15:08:28.983,-44931.99079,29437.98506,2169.974407,22438.44687,18346.89299,-62699.70539,10559.27701,-55060.84026,-0.018,0.096,-0.99,192,0,0,0,0,0,0,0,0,0,0
 2023-06-24 15:08:28.983,-44915.85283,30591.0892,3329.672316,23562.65021,19499.10307,-63636.71287,11705.65327,-55638.96813,-0.018,0.096,-0.99,192,0,0,0,0,0,0,0,0,0,0
 2023-06-24 15:08:28.983,-44652.34812,30980.546,3699.951315,23986.6181,19863.14593,-63586.17557,12072.64657,-55631.10031,-0.018,0.096,-0.99,192,0,0,0,0,0,0,0,0,0,0
 2023-06-24 15:08:28.983,-44487.23578,29977.9585,2675.10148,23044.62618,18843.83933,-62552.00506,11066.14751,-55007.91133,-0.018,0.096,-0.99,192,0,0,0,0,0,0,0,0,0,0
 2023-06-24 15:08:28.983,-44660.39475,29042.60505,1751.840323,22101.09199,17929.13889,-62006.17546,10147.15554,-54660.90049,-0.018,0.096,-0.99,192,0,0,0,0,0,0,0,0,0,0
 2023-06-24 15:08:28.983,-44908.25324,29408.25724,2138.972537,22413.68114,18311.75605,-62684.86383,10522.30722,-55059.63326,-0.018,0.096,-0.99,192,0,0,0,0,0,0,0,0,0,0
 2023-06-24 15:08:28.983,-44906.3757,30503.82799,3237.381963,23482.72037,19408.77967,-63639.48448,11617.02861,-55649.07112,-0.018,0.096,-0.99,192,0,0,0,0,0,0,0,0,0,0
 2023-06-24 15:08:28.983,-44646.73783,30910.87561,3622.234299,23922.11097,19795.55426,-63610.8519,12010.17344,-55654.36848,-0.018,0.096,-0.99,192,0,0,0,0,0,0,0,0,0,0
 2023-06-24 15:08:28.983,-44471.14253,29975.38805,2668.105384,23034.09851,18841.09006,-62581.44231,11059.88903,-55032.69941,-0.018,0.096,-0.99,192,0,0,0,0,0,0,0,0,0,0
 2023-06-24 15:08:28.983,-44634.89141,29056.21726,1764.446707,22094.8335,17930.85997,-62008.6565,10149.61423,-54668.20951,-0.014,0.096,-0.982,192,255,144,3,0,225,80,0,0,0,0
 2023-06-24 15:08:28.983,-44878.97246,29436.33103,2165.235837,22421.68306,18326.21763,-62667.11654,10544.4578,-55053.50888,-0.014,0.096,-0.982,192,0,0,0,0,0,0,0,0,0,0
 2023-06-24 15:08:28.983,-44882.83931,30517.93194,3252.469391,23477.35595,19406.07511,-63629.31444,11619.95669,-55649.33934,-0.014,0.096,-0.982,192,0,0,0,0,0,0,0,0,0,0
 2023-06-24 15:08:28.983,-44631.6504,30906.85229,3622.122541,23901.32384,19778.2093,-63624.55352,11991.95677,-55669.67942,-0.014,0.096,-0.982,192,0,0,0,0,0,0,0,0,0,0
 2023-06-24 15:08:28.983,-44461.46422,29930.23752,2622.396066,22986.73516,18792.31856,-62614.14291,11011.78807,-55062.76251,-0.014,0.096,-0.982,192,0,0,0,0,0,0,0,0,0,0
 2023-06-24 15:08:28.983,-44625.1684,28963.77044,1665.741404,22007.75111,17846.75036,-62026.29203,10066.93513,-54690.4048,-0.014,0.096,-0.982,192,0,0,0,0,0,0,0,0,0,0
 2023-06-24 15:08:28.983,-44865.00262,29352.10965,2075.784156,22341.17208,18253.28389,-62664.70255,10470.58528,-55062.31547,-0.014,0.096,-0.982,192,0,0,0,0,0,0,0,0,0,0
 2023-06-24 15:08:28.983,-44868.82476,30479.68811,3213.845577,23438.17335,19380.2812,-63630.99082,11591.30175,-55655.44136,-0.014,0.096,-0.982,192,0,0,0,0,0,0,0,0,0,0
 2023-06-24 15:08:28.983,-44610.99739,30941.5869,3660.992224,23941.02054,19826.46672,-63641.07146,12033.3075,-55681.36939,-0.014,0.096,-0.982,192,0,0,0,0,0,0,0,0,0,0
 2023-06-24 15:08:28.983,-44433.56924,29993.29179,2690.144204,23052.80692,18860.35727,-62637.03109,11069.74614,-55078.25227,-0.014,0.096,-0.982,192,0,0,0,0,0,0,0,0,0,0
 2023-06-24 15:08:28.983,-44588.28802,29041.59922,1749.515742,22091.19017,17921.06991,-62023.09573,10135.37617,-54688.52725,-0.02,0.096,-0.982,192,255,96,3,0,225,80,0,0,0,0
 2023-06-24 15:08:28.983,-44830.7821,29414.40396,2147.220331,22401.25357,18311.0855,-62647.82699,10534.77949,-55051.07254,-0.02,0.096,-0.982,192,0,0,0,0,0,0,0,0,0,0
 2023-06-24 15:08:28.983,-44839.29811,30544.23994,3284.208868,23501.16056,19441.61438,-63618.33973,11667.36474,-55647.70766,-0.02,0.096,-0.982,192,0,0,0,0,0,0,0,0,0,0
 2023-06-24 15:08:28.983,-44590.03146,30984.94929,3706.120396,23984.42763,19867.07984,-63650.81682,12092.9196,-55688.61135,-0.02,0.096,-0.982,192,0,0,0,0,0,0,0,0,0,0
 2023-06-24 15:08:28.983,-44413.63149,30021.81262,2717.323925,23085.52987,18888.3193,-62659.98634,11122.80919,-55094.50198,-0.02,0.096,-0.982,192,0,0,0,0,0,0,0,0,0,0
 2023-06-24 15:08:28.983,-44575.92751,28985.49634,1688.875459,22048.90067,17869.0127,-62036.57383,10084.01186,-54700.35132,-0.02,0.096,-0.982,192,0,0,0,0,0,0,0,0,0,0
 2023-06-24 15:08:28.983,-44825.95412,29297.92902,2024.755123,22310.37138,18204.06535,-62653.37022,10408.58154,-55058.69449,-0.02,0.096,-0.982,192,0,0,0,0,0,0,0,0,0,0
 2023-06-24 15:08:28.983,-44821.70729,30543.27882,3280.923162,23515.35392,19442.19553,-63614.42818,11647.94107,-55645.76306,-0.02,0.096,-0.982,192,0,0,0,0,0,0,0,0,0,0
 2023-06-24 15:08:28.983,-44569.04317,31016.12997,3737.837522,24023.00674,19894.46073,-63659.42224,12104.83308,-55695.98743,-0.02,0.096,-0.982,192,0,0,0,0,0,0,0,0,0,0
 2023-06-24 15:08:28.983,-44377.62283,30132.67727,2832.70363,23209.26913,19000.68152,-62669.35172,11208.23755,-55103.6215,-0.02,0.096,-0.982,192,0,0,0,0,0,0,0,0,0,0
 2023-06-24 15:08:28.983,-44532.69923,29093.03058,1800.74594,22166.18027,17980.14557,-62023.65452,10186.3158,-54696.48447,-0.024,0.1,-0.99,192,255,64,3,32,225,16,0,0,0,0
 2023-06-24 15:08:28.983,-44791.10775,29337.20104,2065.100022,22350.73863,18240.25282,-62630.16911,10459.90115,-55049.06089,-0.024,0.1,-0.99,192,0,0,0,0,0,0,0,0,0,0
 2023-06-24 15:08:28.983,-44811.31373,30448.41802,3182.955466,23416.49215,19347.24532,-63613.71292,11572.97332,-55652.58034,-0.024,0.1,-0.99,192,0,0,0,0,0,0,0,0,0,0
 2023-06-24 15:08:28.983,-44559.18605,30966.84438,3679.9018,23958.29844,19841.6212,-63677.72832,12064.55524,-55712.75124,-0.024,0.1,-0.99,192,0,0,0,0,0,0,0,0,0,0
 2023-06-24 15:08:28.983,-44361.41781,30123.31189,2814.330496,23168.16427,18979.55912,-62697.11258,11202.4708,-55127.64962,-0.024,0.1,-0.99,192,0,0,0,0,0,0,0,0,0,0
 2023-06-24 15:08:28.983,-44514.54961,29053.75857,1756.109507,22092.53127,17926.45668,-62032.57287,10158.82315,-54710.52137,-0.024,0.1,-0.99,192,0,0,0,0,0,0,0,0,0,0
 2023-06-24 15:08:28.983,-44763.25748,29371.44391,2097.375941,22365.35667,18269.95829,-62613.24884,10488.39962,-55046.44573,-0.024,0.1,-0.99,192,0,0,0,0,0,0,0,0,0,0
 2023-06-24 15:08:28.983,-44782.21175,30520.97178,3257.610292,23485.55904,19419.93319,-63596.07739,11633.81477,-55648.75819,-0.024,0.1,-0.99,192,0,0,0,0,0,0,0,0,0,0
 2023-06-24 15:08:28.983,-44548.41251,30952.4275,3664.926131,23951.65997,19832.92637,-63692.45812,12061.11307,-55730.56558,-0.024,0.1,-0.99,192,0,0,0,0,0,0,0,0,0,0
 2023-06-24 15:08:28.983,-44351.15836,30135.94063,2822.600642,23188.66082,18998.37929,-62725.61106,11223.28028,-55151.00719,-0.024,0.1,-0.99,192,0,0,0,0,0,0,0,0,0,0
 2023-06-24 15:08:28.983,-44489.11333,29120.47853,1819.230833,22166.02381,17992.10375,-62033.93633,10212.80261,-54713.62826,-0.024,0.094,-0.988,192,255,64,2,240,225,32,0,0,0,0
 2023-06-24 15:08:28.984,-44748.55003,29324.86288,2047.464496,22320.74259,18219.19748,-62606.99035,10445.149,-55047.02688,-0.024,0.094,-0.988,192,0,0,0,0,0,0,0,0,0,0
 2023-06-24 15:08:28.984,-44775.88621,30441.93601,3172.271332,23406.36681,19340.20452,-63598.49138,11576.90723,-55654.43553,-0.024,0.094,-0.988,192,0,0,0,0,0,0,0,0,0,0
 2023-06-24 15:08:28.984,-44530.28524,30993.44295,3703.21467,24001.77258,19880.75911,-63700.37063,12109.92928,-55737.74049,-0.024,0.094,-0.988,192,0,0,0,0,0,0,0,0,0,0
 2023-06-24 15:08:28.984,-44331.15355,30171.07757,2857.022328,23253.23501,19048.13427,-62746.48759,11263.2899,-55169.04505,-0.024,0.094,-0.988,192,0,0,0,0,0,0,0,0,0,0
 2023-06-24 15:08:28.984,-44472.86361,29073.56221,1769.878181,22154.75853,17962.51004,-62044.24048,10176.10105,-54728.67098,-0.024,0.094,-0.988,192,0,0,0,0,0,0,0,0,0,0
 2023-06-24 15:08:28.984,-44732.50147,29290.19532,2016.64144,22306.66099,18200.04203,-62598.6755,10422.52903,-55050.73727,-0.024,0.094,-0.988,192,0,0,0,0,0,0,0,0,0,0
 2023-06-24 15:08:28.984,-44767.05727,30412.40935,3149.941939,23386.83139,19325.2065,-63593.88692,11541.63617,-55659.93406,-0.024,0.094,-0.988,192,0,0,0,0,0,0,0,0,0,0
 2023-06-24 15:08:28.984,-44526.12782,30965.97266,3687.97078,23964.82515,19857.6027,-63715.12278,12073.92062,-55754.43724,-0.024,0.094,-0.988,192,0,0,0,0,0,0,0,0,0,0
 2023-06-24 15:08:28.984,-44317.7425,30194.61396,2892.293381,23254.26319,19067.89322,-62767.45352,11288.16739,-55188.55812,-0.024,0.094,-0.988,192,0,0,0,0,0,0,0,0,0,0
 2023-06-24 15:08:28.984,-44451.38358,29092.82942,1794.353341,22159.25123,17982.69367,-62044.66516,10198.40809,-54734.81771,-0.022,0.094,-0.986,192,255,80,2,240,225,48,0,0,0,0
 2023-06-24 15:08:28.984,-44714.12834,29272.35863,1996.323704,22286.11973,18184.57463,-62587.16435,10394.29878,-55048.79267,-0.022,0.094,-0.986,192,0,0,0,0,0,0,0,0,0,0
 2023-06-24 15:08:28.984,-44746.62778,30433.59881,3166.638692,23408.15495,19346.73123,-63582.30872,11555.4719,-55656.64836,-0.022,0.094,-0.986,192,0,0,0,0,0,0,0,0,0,0
 2023-06-24 15:08:28.984,-44514.39315,30970.86769,3687.926076,23968.22261,19863.86119,-63728.7797,12080.51438,-55767.89299,-0.022,0.094,-0.986,192,0,0,0,0,0,0,0,0,0,0
 2023-06-24 15:08:28.984,-44303.66091,30211.46717,2906.352628,23266.06491,19086.80279,-62794.61089,11300.68437,-55211.11103,-0.022,0.094,-0.986,192,0,0,0,0,0,0,0,0,0,0
 2023-06-24 15:08:28.984,-44439.00072,29062.14047,1763.463231,22114.43598,17947.73554,-62058.29973,10175.76577,-54750.1063,-0.022,0.094,-0.986,192,0,0,0,0,0,0,0,0,0,0
 2023-06-24 15:08:28.984,-44697.63275,29259.95341,1984.901963,22252.23449,18164.83804,-62579.18478,10391.61657,-55051.02784,-0.022,0.094,-0.986,192,0,0,0,0,0,0,0,0,0,0
 2023-06-24 15:08:28.984,-44737.39651,30393.03039,3125.690296,23348.90048,19300.68663,-63578.62068,11522.79365,-55661.56574,-0.022,0.094,-0.986,192,0,0,0,0,0,0,0,0,0,0
 2023-06-24 15:08:28.984,-44502.52438,30978.28847,3692.374074,23969.9884,19872.64542,-63736.98279,12093.70191,-55778.53242,-0.022,0.094,-0.986,192,0,0,0,0,0,0,0,0,0,0
 2023-06-24 15:08:28.984,-44297.2236,30187.88608,2878.748224,23233.99016,19060.0254,-62818.28139,11281.77479,-55234.17803,-0.022,0.094,-0.986,192,0,0,0,0,0,0,0,0,0,0
 2023-06-24 15:08:29.462,-44427.10959,29025.48361,1723.185387,22081.24364,17908.68704,-62065.85462,10124.73674,-54763.91968,-0.024,0.096,-0.988,192,255,64,3,0,225,32,0,0,0,0
 2023-06-24 15:08:29.462,-44680.62308,29262.65797,1984.790204,22268.4395,18168.36961,-62565.48316,10380.39599,-55049.2844,-0.024,0.096,-0.988,192,0,0,0,0,0,0,0,0,0,0
 2023-06-24 15:08:29.462,-44728.25464,30374.76902,3111.116959,23344.89952,19285.35334,-63567.9589,11494.47399,-55661.96807,-0.024,0.096,-0.988,192,0,0,0,0,0,0,0,0,0,0
 2023-06-24 15:08:29.462,-44503.57491,30927.14768,3649.637538,23926.33545,19821.68345,-63750.39384,12025.23852,-55796.14559,-0.024,0.096,-0.988,192,0,0,0,0,0,0,0,0,0,0
 2023-06-24 15:08:29.462,-44293.87084,30171.74812,2868.220552,23229.76568,19047.8884,-62844.70115,11257.18787,-55259.12258,-0.024,0.096,-0.988,192,0,0,0,0,0,0,0,0,0,0
 2023-06-24 15:08:29.462,-44414.27969,29027.96465,1725.39821,22089.42438,17910.0952,-62075.57763,10130.01175,-54777.17427,-0.024,0.096,-0.988,192,0,0,0,0,0,0,0,0,0,0
 2023-06-24 15:08:29.462,-44670.60949,29204.45403,1923.792294,22205.6311,18104.64479,-62562.66684,10330.12692,-55054.91704,-0.024,0.096,-0.988,192,0,0,0,0,0,0,0,0,0,0
 2023-06-24 15:08:29.462,-44720.11861,30319.87313,3051.214284,23280.90647,19225.18244,-63565.96959,11437.92408,-55665.45494,-0.024,0.096,-0.988,192,0,0,0,0,0,0,0,0,0,0
 2023-06-24 15:08:29.462,-44487.70517,30951.42167,3671.363434,23933.71152,19837.28496,-63760.1839,12047.09852,-55804.46044,-0.024,0.096,-0.988,192,0,0,0,0,0,0,0,0,0,0
 2023-06-24 15:08:29.462,-44267.87576,30265.33488,2961.583789,23314.21057,19133.00385,-62859.05097,11334.14493,-55269.78436,-0.024,0.096,-0.988,192,0,0,0,0,0,0,0,0,0,0
 2023-06-24 15:08:29.462,-44386.63058,29094.39404,1795.403873,22148.03066,17970.44491,-62072.11311,10174.58113,-54778.2248,-0.02,0.096,-0.99,192,255,96,3,0,225,16,0,0,0,0
 2023-06-24 15:08:29.462,-44650.98466,29226.93988,1950.770849,22231.76029,18128.06942,-62544.96426,10327.53412,-55046.71395,-0.02,0.096,-0.99,192,0,0,0,0,0,0,0,0,0,0
 2023-06-24 15:08:29.462,-44710.66382,30309.39016,3044.218188,23276.39142,19219.57215,-63552.6256,11419.59565,-55660.3811,-0.02,0.096,-0.99,192,0,0,0,0,0,0,0,0,0,0
 2023-06-24 15:08:29.462,-44482.3184,30949.29826,3666.982492,23941.46758,19843.40934,-63767.42587,12043.81282,-55810.02603,-0.02,0.096,-0.99,192,0,0,0,0,0,0,0,0,0,0
 2023-06-24 15:08:29.462,-44262.08666,30262.60796,2955.593521,23308.75675,19136.49072,-62881.8721,11335.62015,-55283.7095,-0.02,0.096,-0.99,192,0,0,0,0,0,0,0,0,0,0
 2023-06-24 15:08:29.462,-44378.87453,29053.33388,1752.041489,22097.3369,17932.75987,-62084.13834,10139.80182,-54785.55617,-0.02,0.096,-0.99,192,0,0,0,0,0,0,0,0,0,0
 2023-06-24 15:08:29.462,-44640.36758,29184.2704,1904.390979,22180.17246,18086.94221,-62537.47642,10288.30681,-55042.60123,-0.02,0.096,-0.99,192,0,0,0,0,0,0,0,0,0,0
 2023-06-24 15:08:29.462,-44699.93498,30285.96554,3018.513682,23238.03583,19193.2865,-63543.68491,11397.73564,-55652.64739,-0.02,0.096,-0.99,192,0,0,0,0,0,0,0,0,0,0
 2023-06-24 15:08:29.462,-44475.85875,30932.19917,3648.587006,23907.49292,19819.09064,-63778.19941,12023.20451,-55816.7092,-0.02,0.096,-0.99,192,0,0,0,0,0,0,0,0,0,0
 2023-06-24 15:08:29.462,-44264.12067,30178.07367,2869.204029,23226.39057,19050.61532,-62916.74082,11256.62908,-55309.68223,-0.02,0.096,-0.99,192,0,0,0,0,0,0,0,0,0,0
 2023-06-24 15:08:29.462,-44364.92704,29028.94813,1727.074591,22089.6032,17914.14087,-62097.92937,10117.94181,-54797.13438,-0.018,0.09,-0.994,192,255,112,2,208,224,240,0,0,0,0
 2023-06-24 15:08:29.462,-44611.26561,29228.32569,1950.882608,22232.58731,18134.55142,-62521.60669,10343.06858,-55034.95694,-0.018,0.09,-0.994,192,0,0,0,0,0,0,0,0,0,0
 2023-06-24 15:08:29.462,-44675.52688,30315.5816,3046.185141,23282.64991,19230.97154,-63526.83169,11426.41293,-55643.12555,-0.018,0.09,-0.994,192,0,0,0,0,0,0,0,0,0,0
 2023-06-24 15:08:29.462,-44453.90933,30966.62086,3679.477117,23956.37619,19861.58131,-63778.40057,12062.65534,-55815.34574,-0.018,0.09,-0.994,192,0,0,0,0,0,0,0,0,0,0
 2023-06-24 15:08:29.462,-44232.96234,30289.67593,2980.202792,23338.77514,19160.76471,-62924.1616,11360.74351,-55311.20215,-0.018,0.09,-0.994,192,0,0,0,0,0,0,0,0,0,0
 2023-06-24 15:08:29.462,-44327.42081,29153.73792,1846.656423,22205.42994,18023.35149,-62088.36282,10227.26419,-54788.12662,-0.018,0.09,-0.994,192,0,0,0,0,0,0,0,0,0,0
 2023-06-24 15:08:29.462,-44587.86334,29259.97576,1975.022492,22262.82922,18152.47752,-62505.28991,10358.22306,-55023.22227,-0.018,0.09,-0.994,192,0,0,0,0,0,0,0,0,0,0
 2023-06-24 15:08:29.462,-44664.93215,30303.66812,3033.332888,23271.40698,19206.49638,-63517.44396,11411.77254,-55636.95647,-0.018,0.09,-0.994,192,0,0,0,0,0,0,0,0,0,0
 2023-06-24 15:08:29.462,-44441.2806,31014.81122,3730.997888,24002.0408,19899.75809,-63782.73681,12098.0158,-55817.73738,-0.018,0.09,-0.994,192,0,0,0,0,0,0,0,0,0,0
 2023-06-24 15:08:29.462,-44221.04886,30334.73704,3023.8781,23381.31051,19197.89096,-62943.27235,11411.63843,-55324.14381,-0.018,0.09,-0.994,192,0,0,0,0,0,0,0,0,0,0
 2023-06-24 15:08:29.463,-44315.01559,29146.96534,1839.347403,22203.37358,18016.26599,-62096.67767,10231.44397,-54794.65333,-0.014,0.094,-0.986,192,255,144,2,240,225,48,0,0,0,0
 2023-06-24 15:08:29.463,-44571.4348,29241.8485,1958.661015,22239.71751,18128.4941,-62492.59412,10338.41942,-55017.74609,-0.014,0.094,-0.986,192,0,0,0,0,0,0,0,0,0,0
 2023-06-24 15:08:29.463,-44651.09642,30285.5185,3015.67501,23240.24865,19177.03678,-63501.41776,11400.17198,-55629.11101,-0.014,0.094,-0.986,192,0,0,0,0,0,0,0,0,0,0
 2023-06-24 15:08:29.463,-44432.63047,30993.73352,3710.166062,23976.24689,19879.82033,-63787.85536,12099.22279,-55820.77722,-0.014,0.094,-0.986,192,0,0,0,0,0,0,0,0,0,0
 2023-06-24 15:08:29.463,-44204.9109,30391.95751,3084.116052,23450.06447,19265.25912,-62959.47736,11462.62276,-55332.19043,-0.014,0.094,-0.986,192,0,0,0,0,0,0,0,0,0,0
 2023-06-24 15:08:29.463,-44293.53557,29209.50552,1906.96143,22274.40742,18085.6011,-62096.4318,10289.15617,-54792.57462,-0.014,0.094,-0.986,192,0,0,0,0,0,0,0,0,0,0
 2023-06-24 15:08:29.463,-44555.34155,29246.89999,1968.652245,22254.76024,18143.00038,-62479.04896,10357.70897,-55006.52552,-0.014,0.094,-0.986,192,0,0,0,0,0,0,0,0,0,0
 2023-06-24 15:08:29.463,-44634.24321,30320.63309,3053.672976,23289.46719,19225.38361,-63484.96687,11436.11359,-55614.85059,-0.014,0.094,-0.986,192,0,0,0,0,0,0,0,0,0,0
 2023-06-24 15:08:29.463,-44418.75004,31033.74315,3752.992005,24026.87359,19924.70264,-63787.36362,12133.9574,-55819.05613,-0.014,0.094,-0.986,192,0,0,0,0,0,0,0,0,0,0
 2023-06-24 15:08:29.463,-44192.79625,30404.51919,3096.253049,23451.31617,19274.55744,-62976.08471,11490.29422,-55345.75794,-0.014,0.094,-0.986,192,0,0,0,0,0,0,0,0,0,0
 2023-06-24 15:08:29.463,-44275.67652,29202.59883,1894.623267,22264.77382,18077.10744,-62101.46095,10299.37092,-54800.37538,-0.016,0.096,-0.99,192,255,128,3,0,225,16,0,0,0,0
 2023-06-24 15:08:29.463,-44523.93735,29310.64717,2027.437333,22330.77852,18212.26844,-62454.30558,10423.02077,-54993.40504,-0.016,0.096,-0.99,192,0,0,0,0,0,0,0,0,0,0
 2023-06-24 15:08:29.463,-44617.61351,30307.26675,3036.015098,23297.78204,19223.59547,-63466.16906,11424.44598,-55606.71456,-0.016,0.096,-0.99,192,0,0,0,0,0,0,0,0,0,0
 2023-06-24 15:08:29.463,-44409.80934,31017.31461,3736.161141,24017.35175,19919.53938,-63790.42581,12123.16151,-55823.41472,-0.016,0.096,-0.99,192,0,0,0,0,0,0,0,0,0,0
 2023-06-24 15:08:29.463,-44177.08298,30447.45689,3145.426887,23502.2558,19327.62049,-62987.81937,11541.01033,-55352.10584,-0.016,0.096,-0.99,192,0,0,0,0,0,0,0,0,0,0
 2023-06-24 15:08:29.463,-44266.80288,29164.91379,1863.0179,22243.31614,18049.25717,-62107.47357,10263.69754,-54806.4327,-0.016,0.096,-0.99,192,0,0,0,0,0,0,0,0,0,0
 2023-06-24 15:08:29.463,-44526.30663,29168.37831,1890.68936,22188.21909,18070.98306,-62448.74,10285.0658,-54998.12126,-0.016,0.096,-0.99,192,0,0,0,0,0,0,0,0,0,0
 2023-06-24 15:08:29.463,-44615.17717,30234.33301,2968.848106,23209.82792,19144.78322,-63451.68512,11363.2469,-55601.79718,-0.016,0.096,-0.99,192,0,0,0,0,0,0,0,0,0,0
 2023-06-24 15:08:29.463,-44410.21167,30962.68695,3684.148632,23959.97482,19860.48607,-63796.0361,12080.35792,-55828.64503,-0.016,0.096,-0.99,192,0,0,0,0,0,0,0,0,0,0
 2023-06-24 15:08:29.463,-44176.0995,30429.32963,3128.260747,23481.15575,19306.74396,-63010.26052,11518.25625,-55366.2992,-0.016,0.096,-0.99,192,0,0,0,0,0,0,0,0,0,0
 2023-06-24 15:08:29.463,-44250.46375,29227.58808,1925.871006,22291.59591,18110.36683,-62107.36181,10326.43888,-54805.00219,-0.008,0.1,-0.986,192,255,192,3,32,225,48,0,0,0,0
 2023-06-24 15:08:29.463,-44513.43203,29207.38211,1926.362744,22237.90702,18118.14524,-62433.29494,10328.67406,-54987.05715,-0.008,0.1,-0.986,192,0,0,0,0,0,0,0,0,0,0
 2023-06-24 15:08:29.463,-44618.59699,30195.82095,2925.262204,23185.68804,19114.18368,-63443.43733,11327.01472,-55596.87979,-0.008,0.1,-0.986,192,0,0,0,0,0,0,0,0,0,0
 2023-06-24 15:08:29.463,-44417.85597,30950.23703,3669.552942,23955.12449,19857.75916,-63804.30625,12064.86816,-55834.25532,-0.008,0.1,-0.986,192,0,0,0,0,0,0,0,0,0,0
 2023-06-24 15:08:29.463,-44177.70883,30453.9389,3152.579445,23512.64936,19342.12677,-63026.24202,11545.50303,-55378.99499,-0.008,0.1,-0.986,192,0,0,0,0,0,0,0,0,0,0
 2023-06-24 15:08:29.463,-44244.92052,29242.76492,1944.355898,22304.69403,18130.14813,-62107.83119,10343.06858,-54808.48906,-0.008,0.1,-0.986,192,0,0,0,0,0,0,0,0,0,0
 2023-06-24 15:08:29.463,-44506.86061,29201.28008,1921.870044,22229.65923,18111.01504,-62415.05592,10317.94522,-54978.80935,-0.008,0.1,-0.986,192,0,0,0,0,0,0,0,0,0,0
 2023-06-24 15:08:29.463,-44617.01001,30181.82876,2913.013448,23177.32849,19105.82413,-63421.97966,11319.03515,-55587.15678,-0.008,0.1,-0.986,192,0,0,0,0,0,0,0,0,0,0
 2023-06-24 15:08:29.463,-44426.30493,30908.1934,3626.034096,23920.6134,19819.13535,-63806.83199,12024.99265,-55840.44675,-0.008,0.1,-0.986,192,0,0,0,0,0,0,0,0,0,0
 2023-06-24 15:08:29.463,-44189.21997,30386.50368,3084.339569,23451.85261,19273.75278,-63052.05829,11474.96092,-55400.38561,-0.008,0.1,-0.986,192,0,0,0,0,0,0,0,0,0,0
 2023-06-24 15:08:29.463,-44255.35879,29145.04309,1842.878979,22226.64174,18033.96857,-62129.17711,10239.98234,-54825.67755,-0.016,0.098,-0.982,192,255,128,3,16,225,80,0,0,0,0
 2023-06-24 15:08:29.463,-44520.74105,29068.75659,1789.860641,22092.55363,17976.99398,-62422.18613,10192.93191,-54986.11837,-0.016,0.098,-0.982,192,0,0,0,0,0,0,0,0,0,0
 2023-06-24 15:08:29.463,-44625.19075,30118.81919,2853.513104,23096.75045,19035.37143,-63420.12446,11257.5455,-55584.40752,-0.016,0.098,-0.982,192,0,0,0,0,0,0,0,0,0,0
 2023-06-24 15:08:29.464,-44427.80249,30920.48686,3637.455837,23919.07113,19824.23154,-63814.49864,12047.00912,-55839.8209,-0.016,0.098,-0.982,192,0,0,0,0,0,0,0,0,0,0
 2023-06-24 15:08:29.464,-44184.68257,30450.96611,3140.151875,23518.75139,19338.57284,-63072.19721,11542.73141,-55406.37587,-0.016,0.098,-0.982,192,0,0,0,0,0,0,0,0,0,0
 2023-06-24 15:08:29.464,-44245.70283,29212.90299,1897.305476,22295.14984,18093.2901,-62136.79905,10300.4438,-54824.02352,-0.016,0.098,-0.982,192,0,0,0,0,0,0,0,0,0,0
 2023-06-24 15:08:29.464,-44508.40289,29133.77781,1842.38724,22161.53111,18035.71201,-62408.84214,10242.82101,-54972.23794,-0.016,0.098,-0.982,192,0,0,0,0,0,0,0,0,0,0
 2023-06-24 15:08:29.464,-44623.00028,30130.39739,2854.049546,23109.93798,19045.34031,-63408.16628,11249.90121,-55573.9022,-0.016,0.098,-0.982,192,0,0,0,0,0,0,0,0,0,0
 2023-06-24 15:08:29.464,-44430.77528,30936.33424,3648.542303,23933.30919,19833.86515,-63821.02535,12040.3483,-55842.23489,-0.016,0.098,-0.982,192,0,0,0,0,0,0,0,0,0,0
 2023-06-24 15:08:29.464,-44187.61065,30458.11867,3149.494904,23507.48611,19329.49803,-63096.09122,11538.32812,-55420.74805,-0.016,0.098,-0.982,192,0,0,0,0,0,0,0,0,0,0
 2023-06-24 15:08:29.464,-44239.89138,29210.10902,1897.528994,22282.72227,18084.14824,-62146.67852,10298.4545,-54829.85733,-0.016,0.1,-0.982,192,255,128,3,32,225,80,0,0,0,0
 2023-06-24 15:08:29.464,-44498.2999,29128.68162,1837.961595,22155.18321,18030.54875,-62393.93352,10243.71508,-54962.24671,-0.016,0.1,-0.982,192,0,0,0,0,0,0,0,0,0,0
 2023-06-24 15:08:29.464,-44622.46384,30090.54423,2817.124464,23061.72527,18995.2724,-63391.71539,11208.12579,-55563.17336,-0.016,0.1,-0.982,192,0,0,0,0,0,0,0,0,0,0
 2023-06-24 15:08:29.464,-44430.32824,30963.60337,3679.2536,23951.59292,19854.67462,-63818.4102,12061.78362,-55837.8316,-0.016,0.1,-0.982,192,0,0,0,0,0,0,0,0,0,0
 2023-06-24 15:08:29.464,-44188.48237,30495.28962,3187.157594,23550.42381,19369.3959,-63109.74814,11577.08604,-55426.96183,-0.016,0.1,-0.982,192,0,0,0,0,0,0,0,0,0,0
 2023-06-24 15:08:29.464,-44235.37633,29247.16821,1936.398677,22322.55308,18119.30753,-62151.86413,10338.77705,-54831.95839,-0.016,0.1,-0.982,192,0,0,0,0,0,0,0,0,0,0
 2023-06-24 15:08:29.464,-44489.49331,29160.66696,1874.394938,22181.89355,18055.94034,-62378.60023,10277.13093,-54951.2273,-0.016,0.1,-0.982,192,0,0,0,0,0,0,0,0,0,0
 2023-06-24 15:08:29.464,-44609.94686,30154.31376,2884.962009,23127.88643,19059.77953,-63367.77668,11275.4269,-55544.46495,-0.016,0.1,-0.982,192,0,0,0,0,0,0,0,0,0,0
 2023-06-24 15:08:29.464,-44421.34284,31020.75678,3741.883188,24007.60639,19911.20218,-63812.95637,12125.93313,-55828.98031,-0.016,0.1,-0.982,192,0,0,0,0,0,0,0,0,0,0
 2023-06-24 15:08:29.464,-44174.8478,30582.90846,3278.106842,23624.92217,19448.2752,-63118.30886,11673.28795,-55425.53132,-0.016,0.1,-0.982,192,0,0,0,0,0,0,0,0,0,0
 2023-06-24 15:08:29.464,-44218.14313,29324.16997,2013.758065,22383.81921,18196.64457,-62146.07503,10434.42016,-54823.84471,-0.02,0.094,-0.982,192,255,96,2,240,225,80,0,0,0,0
 2023-06-24 15:08:29.464,-44478.67506,29159.66113,1871.846839,22168.14723,18051.02295,-62358.03662,10274.24756,-54939.0456,-0.02,0.094,-0.982,192,0,0,0,0,0,0,0,0,0,0
 2023-06-24 15:08:29.464,-44604.82831,30132.58787,2855.435354,23106.51816,19034.81263,-63348.53182,11244.00034,-55532.93145,-0.02,0.094,-0.982,192,0,0,0,0,0,0,0,0,0,0
 2023-06-24 15:08:29.464,-44428.33894,30947.19719,3661.528666,23929.26352,19835.07214,-63821.51709,12044.72924,-55835.35055,-0.02,0.094,-0.982,192,0,0,0,0,0,0,0,0,0,0
 2023-06-24 15:08:29.464,-44171.38328,30591.22331,3285.572324,23633.25937,19463.16146,-63138.60424,11670.1587,-55435.70136,-0.02,0.094,-0.982,192,0,0,0,0,0,0,0,0,0,0
 2023-06-24 15:08:29.464,-44208.88951,29325.66754,2018.139007,22393.07283,18196.30929,-62160.84953,10406.72635,-54827.64451,-0.02,0.094,-0.982,192,0,0,0,0,0,0,0,0,0,0
 2023-06-24 15:08:29.464,-44464.79463,29146.31714,1862.995549,22164.74976,18037.38839,-62351.01817,10256.52263,-54926.2604,-0.02,0.094,-0.982,192,0,0,0,0,0,0,0,0,0,0
 2023-06-24 15:08:29.464,-44600.82735,30041.16923,2774.611446,23014.36192,18945.65152,-63341.60278,11155.82271,-55521.4203,-0.02,0.094,-0.982,192,0,0,0,0,0,0,0,0,0,0
 2023-06-24 15:08:29.464,-44426.97548,30883.62883,3604.621125,23863.37058,19774.87889,-63828.51318,11987.8664,-55833.11538,-0.02,0.094,-0.982,192,0,0,0,0,0,0,0,0,0,0
 2023-06-24 15:08:29.464,-44169.55044,30546.27395,3246.322661,23576.44124,19418.43562,-63161.783,11636.1617,-55445.71494,-0.02,0.094,-0.982,192,0,0,0,0,0,0,0,0,0,0
 2023-06-24 15:08:29.464,-44193.13153,29339.68208,2033.29349,22400.4042,18216.09059,-62168.60559,10424.36188,-54829.43265,-0.02,0.094,-0.984,192,255,96,2,240,225,64,0,0,0,0
 2023-06-24 15:08:29.464,-44439.47011,29187.10908,1899.004209,22196.44453,18078.35914,-62335.9978,10283.97057,-54912.93876,-0.02,0.094,-0.984,192,0,0,0,0,0,0,0,0,0,0
 2023-06-24 15:08:29.464,-44576.39689,30075.68032,2802.752292,23040.08878,18975.4017,-63322.08971,11177.95094,-55502.60013,-0.02,0.094,-0.984,192,0,0,0,0,0,0,0,0,0,0
 2023-06-24 15:08:29.464,-44404.28846,30931.3051,3651.783306,23910.08573,19822.95749,-63825.451,12028.45717,-55823.32531,-0.02,0.094,-0.984,192,0,0,0,0,0,0,0,0,0,0
 2023-06-24 15:08:29.464,-44138.36976,30637.84905,3335.61788,23669.11157,19516.09039,-63172.53419,11729.48023,-55444.23973,-0.02,0.094,-0.984,192,0,0,0,0,0,0,0,0,0,0
 2023-06-24 15:08:29.464,-44158.93336,29377.0095,2068.251618,22430.44495,18250.93696,-62171.46661,10470.02649,-54824.4035,-0.02,0.094,-0.984,192,0,0,0,0,0,0,0,0,0,0
 2023-06-24 15:08:29.464,-44413.54208,29152.64269,1863.420232,22158.75949,18039.71297,-62323.34671,10263.94341,-54898.36543,-0.02,0.094,-0.984,192,0,0,0,0,0,0,0,0,0,0
 2023-06-24 15:08:29.464,-44549.37363,30078.09431,2806.261516,23047.53191,18983.06834,-63298.57568,11199.09569,-55479.80135,-0.02,0.094,-0.984,192,0,0,0,0,0,0,0,0,0,0
 2023-06-24 15:08:29.464,-44385.06596,30939.95523,3661.148687,23929.41999,19837.53083,-63818.56666,12036.79437,-55809.35547,-0.02,0.094,-0.984,192,0,0,0,0,0,0,0,0,0,0
 2023-06-24 15:08:29.464,-44126.92566,30638.16197,3337.987165,23680.48861,19512.67058,-63188.26982,11715.46569,-55442.60805,-0.02,0.094,-0.984,192,0,0,0,0,0,0,0,0,0,0
 2023-06-24 15:08:29.464,-44147.08694,29358.16698,2055.041737,22428.36624,18230.06043,-62184.29651,10440.07515,-54822.70477,-0.024,0.088,-0.982,192,255,64,2,192,225,80,0,0,0,0
 2023-06-24 15:08:29.464,-44409.8764,29061.17935,1780.338798,22088.19504,17953.65875,-62323.61493,10164.5899,-54890.94465,-0.024,0.088,-0.982,192,0,0,0,0,0,0,0,0,0,0
 2023-06-24 15:08:29.464,-44551.96643,29963.34046,2697.676742,22944.04333,18869.20856,-63296.96635,11072.27189,-55469.74307,-0.024,0.088,-0.982,192,0,0,0,0,0,0,0,0,0,0
 2023-06-24 15:08:29.465,-44386.51882,30880.56664,3603.816462,23868.71265,19772.44255,-63827.14973,11977.49519,-55804.5275,-0.024,0.088,-0.982,192,0,0,0,0,0,0,0,0,0,0
 2023-06-24 15:08:29.465,-44128.46793,30585.05423,3287.494574,23625.10099,19452.00794,-63212.99085,11657.01588,-55450.56527,-0.024,0.088,-0.982,192,0,0,0,0,0,0,0,0,0,0
 2023-06-24 15:08:29.465,-44138.21329,29343.95127,2043.016498,22421.16897,18211.32966,-62196.79114,10414.393,-54822.72712,-0.024,0.088,-0.982,192,0,0,0,0,0,0,0,0,0,0
 2023-06-24 15:08:29.465,-44387.68111,29107.53687,1830.876092,22139.69346,17996.21648,-62307.1864,10207.88523,-54873.7338,-0.024,0.088,-0.982,192,0,0,0,0,0,0,0,0,0,0
 2023-06-24 15:08:29.465,-44534.50972,29989.46965,2728.499797,22970.26193,18889.6604,-63273.25115,11103.58669,-55450.9229,-0.024,0.088,-0.982,192,0,0,0,0,0,0,0,0,0,0
 2023-06-24 15:08:29.465,-44375.20884,30908.17105,3636.941747,23898.37341,19797.18593,-63821.49474,12007.58064,-55795.92208,-0.024,0.088,-0.982,192,0,0,0,0,0,0,0,0,0,0
 2023-06-24 15:08:29.465,-44119.6837,30609.55174,3314.160206,23655.49936,19480.08173,-63227.98887,11691.99636,-55454.85681,-0.024,0.088,-0.982,192,0,0,0,0,0,0,0,0,0,0
 2023-06-24 15:08:29.465,-44128.40088,29322.98533,2021.692934,22393.43046,18190.83311,-62207.16235,10416.42701,-54825.23052,-0.016,0.088,-0.982,192,255,128,2,192,225,80,0,0,0,0
 2023-06-24 15:08:29.465,-44381.28851,29038.71584,1758.657605,22061.44,17926.59079,-62300.36912,10148.94368,-54865.3966,-0.016,0.088,-0.982,192,0,0,0,0,0,0,0,0,0,0
 2023-06-24 15:08:29.465,-44536.45432,29865.03748,2599.396121,22844.39925,18765.80939,-63266.8809,10980.31682,-55443.05509,-0.016,0.088,-0.982,192,0,0,0,0,0,0,0,0,0,0
 2023-06-24 15:08:29.465,-44374.60534,30824.35201,3548.540598,23809.41347,19715.28914,-63827.68617,11938.20082,-55796.63733,-0.016,0.088,-0.982,192,0,0,0,0,0,0,0,0,0,0
 2023-06-24 15:08:29.465,-44110.98887,30599.06877,3301.822043,23629.45958,19469.88934,-63248.12779,11695.17031,-55464.24454,-0.016,0.088,-0.982,192,0,0,0,0,0,0,0,0,0,0
 2023-06-24 15:08:29.465,-44110.34067,29348.13104,2043.441182,22419.20202,18212.29079,-62219.4558,10419.5339,-54829.85733,-0.016,0.088,-0.982,192,0,0,0,0,0,0,0,0,0,0
 2023-06-24 15:08:29.465,-44364.99409,29023.94134,1737.714021,22046.7102,17903.09911,-62294.08828,10108.55408,-54859.27222,-0.016,0.088,-0.982,192,0,0,0,0,0,0,0,0,0,0
 2023-06-24 15:08:29.465,-44510.23573,29956.65729,2686.143242,22918.60705,18847.77324,-63243.00924,11060.29136,-55420.92686,-0.016,0.088,-0.982,192,0,0,0,0,0,0,0,0,0,0
 2023-06-24 15:08:29.465,-44351.91832,30926.34301,3649.995166,23894.3948,19806.17133,-63818.74547,12016.29782,-55779.80647,-0.016,0.088,-0.982,192,0,0,0,0,0,0,0,0,0,0
 2023-06-24 15:08:29.465,-44091.07346,30676.60697,3378.443823,23702.59448,19539.35856,-63259.61658,11752.48018,-55461.8082,-0.016,0.088,-0.982,192,0,0,0,0,0,0,0,0,0,0
 2023-06-24 15:08:29.465,-44085.75375,29402.6246,2095.610153,22458.20581,18260.57056,-62227.0554,10480.73298,-54828.8515,-0.022,0.094,-0.984,192,255,80,2,240,225,64,0,0,0,0
 2023-06-24 15:08:29.942,-44350.26429,29002.886,1715.697553,22014.07665,17879.45096,-62292.4566,10097.9817,-54854.71247,-0.022,0.094,-0.984,192,0,0,0,0,0,0,0,0,0,0
 2023-06-24 15:08:29.942,-44517.72356,29812.6897,2542.421525,22775.10885,18702.10692,-63252.91106,10918.60365,-55426.22422,-0.022,0.094,-0.984,192,0,0,0,0,0,0,0,0,0,0
 2023-06-24 15:08:29.942,-44361.77544,30821.0216,3538.124685,23798.75169,19704.15797,-63839.04086,11913.32333,-55793.41868,-0.022,0.094,-0.984,192,0,0,0,0,0,0,0,0,0,0
 2023-06-24 15:08:29.942,-44092.07929,30649.4496,3342.725735,23681.53914,19513.81052,-63288.85267,11717.72322,-55480.76248,-0.022,0.094,-0.984,192,0,0,0,0,0,0,0,0,0,0
 2023-06-24 15:08:29.942,-44079.42821,29400.32237,2090.089272,22459.41281,18257.19544,-62250.03299,10451.78747,-54843.33543,-0.022,0.094,-0.984,192,0,0,0,0,0,0,0,0,0,0
 2023-06-24 15:08:29.942,-44331.04179,29030.84803,1745.112448,22037.32247,17902.22739,-62282.48772,10101.11095,-54847.64932,-0.022,0.094,-0.984,192,0,0,0,0,0,0,0,0,0,0
 2023-06-24 15:08:29.942,-44491.50497,29863.22699,2595.506918,22819.29825,18747.88329,-63225.50782,10937.2003,-55407.44876,-0.022,0.094,-0.984,192,0,0,0,0,0,0,0,0,0,0
 2023-06-24 15:08:29.942,-44348.07382,30812.68439,3535.889511,23772.37663,19687.28241,-63834.4811,11893.02795,-55789.41772,-0.022,0.094,-0.984,192,0,0,0,0,0,0,0,0,0,0
 2023-06-24 15:08:29.942,-44083.71974,30648.8014,3346.100848,23664.08243,19503.3052,-63307.85165,11705.60857,-55490.50784,-0.022,0.094,-0.984,192,0,0,0,0,0,0,0,0,0,0
 2023-06-24 15:08:29.942,-44068.05117,29397.64016,2084.881316,22451.50029,18247.49479,-62267.73557,10447.47358,-54853.2149,-0.02,0.092,-0.994,192,255,96,2,224,224,240,0,0,0,0
 2023-06-24 15:08:29.942,-44319.5977,29000.80729,1707.472111,22011.28268,17871.29258,-62279.582,10071.7184,-54844.78829,-0.02,0.092,-0.994,192,0,0,0,0,0,0,0,0,0,0
 2023-06-24 15:08:29.942,-44484.93355,29808.86755,2531.625632,22760.4014,18689.23231,-63214.48841,10890.17223,-55399.84916,-0.02,0.092,-0.994,192,0,0,0,0,0,0,0,0,0,0
 2023-06-24 15:08:29.942,-44345.861,30768.495,3485.91101,23736.34562,19647.4963,-63837.78916,11840.59076,-55789.75299,-0.02,0.092,-0.994,192,0,0,0,0,0,0,0,0,0,0
 2023-06-24 15:08:29.942,-44083.228,30610.66933,3304.616011,23634.93575,19468.72705,-63329.01875,11664.23549,-55502.44367,-0.02,0.092,-0.994,192,0,0,0,0,0,0,0,0,0,0
 2023-06-24 15:08:29.942,-44057.38939,29408.36899,2094.961953,22450.53917,18251.80867,-62279.71611,10458.6718,-54858.19934,-0.02,0.092,-0.994,192,0,0,0,0,0,0,0,0,0,0
 2023-06-24 15:08:29.942,-44297.58123,29057.37955,1761.898608,22066.15622,17923.86388,-62261.47708,10130.07881,-54831.77958,-0.02,0.092,-0.994,192,0,0,0,0,0,0,0,0,0,0
 2023-06-24 15:08:29.942,-44470.00259,29812.91322,2533.749048,22782.88725,18698.62005,-63192.82957,10896.78835,-55385.83462,-0.02,0.092,-0.994,192,0,0,0,0,0,0,0,0,0,0
 2023-06-24 15:08:29.942,-44337.76967,30755.46393,3472.432908,23709.41177,19626.48566,-63835.24106,11820.58594,-55789.55183,-0.02,0.092,-0.994,192,0,0,0,0,0,0,0,0,0,0
 2023-06-24 15:08:29.942,-44068.60996,30691.80616,3382.780061,23694.4808,19541.52668,-63337.9371,11721.07598,-55507.3387,-0.02,0.092,-0.994,192,0,0,0,0,0,0,0,0,0,0
 2023-06-24 15:08:29.942,-44032.93658,29527.45909,2206.452454,22578.92759,18373.40216,-62284.1194,10549.37518,-54859.71926,-0.02,0.09,-0.992,192,255,96,2,208,225,0,0,0,0,0
 2023-06-24 15:08:29.942,-44274.60364,29107.64862,1811.698295,22117.09584,17971.49545,-62250.36827,10153.90577,-54824.67172,-0.02,0.09,-0.992,192,0,0,0,0,0,0,0,0,0,0
 2023-06-24 15:08:29.942,-44453.08232,29807.81702,2530.642155,22767.75512,18689.7017,-63173.89764,10875.91182,-55374.30112,-0.02,0.09,-0.992,192,0,0,0,0,0,0,0,0,0,0
 2023-06-24 15:08:29.942,-44327.242,30739.92947,3455.80321,23707.02013,19618.70725,-63828.80376,11797.78717,-55787.2943,-0.02,0.09,-0.992,192,0,0,0,0,0,0,0,0,0,0
 2023-06-24 15:08:29.942,-44051.89086,30732.10636,3425.404838,23752.77415,19589.2253,-63345.46964,11763.56664,-55512.4796,-0.02,0.09,-0.992,192,0,0,0,0,0,0,0,0,0,0
 2023-06-24 15:08:29.942,-44012.57414,29569.74859,2250.194818,22627.69909,18414.86465,-62290.53435,10596.29149,-54864.0555,-0.02,0.09,-0.992,192,0,0,0,0,0,0,0,0,0,0
 2023-06-24 15:08:29.942,-44263.58423,29068.57777,1769.006463,22084.61876,17933.94452,-62247.619,10130.57055,-54826.88455,-0.02,0.09,-0.992,192,0,0,0,0,0,0,0,0,0,0
 2023-06-24 15:08:29.942,-44440.09595,29814.74606,2536.274795,22780.78619,18700.45289,-63156.70915,10889.7699,-55367.10386,-0.02,0.09,-0.992,192,0,0,0,0,0,0,0,0,0,0
 2023-06-24 15:08:29.943,-44304.10794,30857.03026,3572.054633,23828.23364,19735.49512,-63812.97872,11914.23975,-55775.62669,-0.02,0.09,-0.992,192,0,0,0,0,0,0,0,0,0,0
 2023-06-24 15:08:29.943,-44041.81022,30778.66504,3471.270617,23801.45625,19634.64405,-63358.32189,11814.19335,-55520.86151,-0.02,0.09,-0.992,192,0,0,0,0,0,0,0,0,0,0
 2023-06-24 15:08:29.943,-44001.8453,29592.9497,2277.061615,22646.9663,18440.88208,-62306.51585,10627.33807,-54874.82904,-0.02,0.09,-0.992,192,0,0,0,0,0,0,0,0,0,0
 2023-06-24 15:08:29.943,-44245.16639,29087.95674,1794.241583,22107.55165,17956.34096,-62239.01358,10140.20415,-54820.08962,-0.018,0.094,-0.996,192,255,112,2,240,224,224,0,0,0,0
 2023-06-24 15:08:29.943,-44427.15429,29782.04546,2509.497405,22755.46166,18666.05355,-63140.57119,10844.9323,-55355.43625,-0.018,0.094,-0.996,192,0,0,0,0,0,0,0,0,0,0
 2023-06-24 15:08:29.943,-44297.96121,30807.78936,3528.0664,23783.5525,19688.37764,-63811.25764,11873.06784,-55772.96683,-0.018,0.094,-0.996,192,0,0,0,0,0,0,0,0,0,0
 2023-06-24 15:08:29.943,-44032.42249,30782.39778,3479.451356,23806.08306,19644.23295,-63372.22467,11836.76861,-55529.35517,-0.018,0.094,-0.996,192,0,0,0,0,0,0,0,0,0,0
 2023-06-24 15:08:29.943,-43991.45174,29588.74757,2277.553353,22645.84871,18441.01619,-62322.45264,10636.0776,-54888.50831,-0.018,0.094,-0.996,192,0,0,0,0,0,0,0,0,0,0
 2023-06-24 15:08:29.943,-44224.60279,29116.94695,1825.042287,22148.5671,17989.35449,-62229.20117,10167.96501,-54817.25095,-0.018,0.094,-0.996,192,0,0,0,0,0,0,0,0,0,0
 2023-06-24 15:08:29.943,-44408.6694,29777.59746,2499.506175,22769.52091,18668.48989,-63122.7345,10846.60868,-55346.67436,-0.018,0.094,-0.996,192,0,0,0,0,0,0,0,0,0,0
 2023-06-24 15:08:29.943,-44292.038,30728.93241,3444.694393,23716.92195,19612.73934,-63814.67745,11799.26238,-55777.0125,-0.018,0.094,-0.996,192,0,0,0,0,0,0,0,0,0,0
 2023-06-24 15:08:29.943,-44027.5051,30700.14336,3398.113358,23727.7849,19562.64908,-63395.0011,11745.59584,-55545.1355,-0.018,0.094,-0.996,192,0,0,0,0,0,0,0,0,0,0
 2023-06-24 15:08:29.943,-43975.42554,29559.0421,2245.657414,22620.18891,18409.81315,-62342.94919,10594.25749,-54901.82995,-0.018,0.094,-0.996,192,0,0,0,0,0,0,0,0,0,0
 2023-06-24 15:08:29.943,-44205.58145,29069.85182,1779.131803,22098.40978,17944.13691,-62229.73761,10125.11672,-54817.318,-0.014,0.09,-0.99,192,255,144,2,208,225,16,0,0,0,0
 2023-06-24 15:08:29.943,-44386.56353,29760.65484,2493.068873,22746.78919,18654.78827,-63107.22239,10829.62135,-55335.76671,-0.014,0.09,-0.99,192,0,0,0,0,0,0,0,0,0,0
 2023-06-24 15:08:29.943,-44271.09441,30738.65542,3467.001434,23722.84516,19628.72084,-63809.84948,11805.69968,-55772.63156,-0.014,0.09,-0.99,192,0,0,0,0,0,0,0,0,0,0
 2023-06-24 15:08:29.943,-44006.06978,30724.79734,3428.556434,23753.24354,19598.09895,-63409.57444,11783.05737,-55551.84103,-0.014,0.09,-0.99,192,0,0,0,0,0,0,0,0,0,0
 2023-06-24 15:08:29.943,-43948.7152,29604.75142,2296.753502,22671.24029,18467.59241,-62358.10368,10656.44004,-54907.93197,-0.014,0.09,-0.99,192,0,0,0,0,0,0,0,0,0,0
 2023-06-24 15:08:29.943,-44172.99261,29109.97321,1820.124903,22142.71094,17989.30979,-62222.89797,10176.90571,-54810.09839,-0.014,0.09,-0.99,192,0,0,0,0,0,0,0,0,0,0
 2023-06-24 15:08:29.943,-44351.13601,29822.30095,2552.09983,22802.22151,18716.09911,-63082.65782,10899.87289,-55316.4101,-0.014,0.09,-0.99,192,0,0,0,0,0,0,0,0,0,0
 2023-06-24 15:08:29.943,-44242.17126,30787.18105,3513.291897,23771.3708,19678.22995,-63796.25962,11848.65974,-55761.36628,-0.014,0.09,-0.99,192,0,0,0,0,0,0,0,0,0,0
 2023-06-24 15:08:29.943,-43980.18646,30789.77386,3493.443548,23823.74094,19662.06964,-63415.94469,11831.85122,-55550.99166,-0.014,0.09,-0.99,192,0,0,0,0,0,0,0,0,0,0
 2023-06-24 15:08:29.943,-43923.97182,29650.32663,2345.323842,22716.50257,18511.37948,-62372.07352,10691.91226,-54912.60349,-0.014,0.09,-0.99,192,0,0,0,0,0,0,0,0,0,0
 2023-06-24 15:08:29.943,-44159.78273,29055.77023,1770.660492,22083.45647,17935.10681,-62227.07775,10117.31596,-54811.95358,-0.016,0.092,-0.99,192,255,128,2,224,225,16,0,0,0,0
 2023-06-24 15:08:29.943,-44350.86779,29691.85617,2423.242023,22668.55808,18582.7486,-63084.08834,10761.76146,-55317.6618,-0.016,0.092,-0.99,192,0,0,0,0,0,0,0,0,0,0
 2023-06-24 15:08:29.943,-44243.02062,30705.99952,3429.048172,23681.22622,19588.26418,-63804.66387,11760.97384,-55764.51788,-0.016,0.092,-0.99,192,0,0,0,0,0,0,0,0,0,0
 2023-06-24 15:08:29.943,-43976.05139,30771.44543,3469.951864,23792.67201,19635.51577,-63435.3907,11801.18463,-55561.42993,-0.016,0.092,-0.99,192,0,0,0,0,0,0,0,0,0,0
 2023-06-24 15:08:29.943,-43915.81344,29651.3101,2334.818522,22711.36167,18503.53402,-62391.00544,10678.70238,-54923.93582,-0.016,0.092,-0.99,192,0,0,0,0,0,0,0,0,0,0
 2023-06-24 15:08:29.943,-44142.50483,29082.16764,1785.814975,22111.08322,17954.55282,-62222.24977,10141.18763,-54807.0809,-0.016,0.092,-0.99,192,0,0,0,0,0,0,0,0,0,0
 2023-06-24 15:08:29.943,-44332.22644,29704.99899,2428.382925,22691.73684,18594.9303,-63067.21277,10775.35132,-55302.82024,-0.016,0.092,-0.99,192,0,0,0,0,0,0,0,0,0,0
 2023-06-24 15:08:29.943,-44228.64845,30706.80418,3423.12496,23697.05125,19593.40508,-63800.72997,11760.79503,-55756.5383,-0.016,0.092,-0.99,192,0,0,0,0,0,0,0,0,0,0
 2023-06-24 15:08:29.943,-43962.81915,30775.37933,3469.571885,23802.84206,19637.2592,-63453.07093,11819.91539,-55567.82252,-0.016,0.092,-0.99,192,0,0,0,0,0,0,0,0,0,0
 2023-06-24 15:08:29.943,-43902.24593,29649.16434,2332.22572,22712.30045,18502.97523,-62415.27944,10700.69649,-54935.42462,-0.016,0.092,-0.99,192,0,0,0,0,0,0,0,0,0,0
 2023-06-24 15:08:29.943,-44128.89262,29038.22411,1741.446762,22069.37487,17913.9397,-62228.15063,10110.40927,-54807.0362,-0.018,0.094,-0.992,192,255,112,2,240,225,0,0,0,0,0
 2023-06-24 15:08:29.943,-44324.24686,29598.38117,2318.76997,22580.42515,18486.09966,-63063.10005,10682.43512,-55299.57924,-0.018,0.094,-0.992,192,0,0,0,0,0,0,0,0,0,0
 2023-06-24 15:08:29.943,-44222.21115,30626.04733,3343.619805,23616.45086,19515.75512,-63802.16048,11697.91957,-55757.45472,-0.018,0.094,-0.992,192,0,0,0,0,0,0,0,0,0,0
 2023-06-24 15:08:29.943,-43958.48292,30715.63312,3415.704181,23757.62448,19591.25931,-63472.58401,11769.9816,-55580.04893,-0.018,0.094,-0.992,192,0,0,0,0,0,0,0,0,0,0
 2023-06-24 15:08:29.943,-43890.3548,29633.31695,2325.117865,22708.85828,18497.29788,-62434.21137,10693.40982,-54947.74043,-0.018,0.094,-0.992,192,0,0,0,0,0,0,0,0,0,0
 2023-06-24 15:08:29.943,-44112.50879,29025.66243,1738.608091,22071.58769,17907.18948,-62224.64141,10104.44136,-54806.18683,-0.018,0.094,-0.992,192,0,0,0,0,0,0,0,0,0,0
 2023-06-24 15:08:29.943,-44305.24788,29605.1314,2336.651365,22602.95571,18503.66813,-63044.25753,10696.44966,-55287.46459,-0.018,0.094,-0.992,192,0,0,0,0,0,0,0,0,0,0
 2023-06-24 15:08:29.943,-44214.20922,30587.08824,3318.004706,23573.06612,19481.95928,-63799.41121,11672.72916,-55755.13014,-0.018,0.094,-0.992,192,0,0,0,0,0,0,0,0,0,0
 2023-06-24 15:08:29.943,-43948.26817,30716.12486,3425.538948,23743.38642,19591.19226,-63488.49845,11776.93299,-55587.26854,-0.018,0.094,-0.992,192,0,0,0,0,0,0,0,0,0,0
 2023-06-24 15:08:29.943,-43873.7251,29655.66869,2347.357851,22723.58808,18513.86053,-62455.24436,10709.79365,-54957.35168,-0.018,0.094,-0.992,192,0,0,0,0,0,0,0,0,0,0
 2023-06-24 15:08:29.943,-44093.95684,29013.99481,1722.872463,22046.03965,17883.0943,-62227.88241,10087.0964,-54804.71162,-0.02,0.098,-0.996,192,255,96,3,16,224,224,0,0,0,0
 2023-06-24 15:08:29.943,-44292.12741,29541.83126,2266.913923,22526.35628,18429.25917,-63038.66959,10630.55672,-55280.04381,-0.02,0.098,-0.996,192,0,0,0,0,0,0,0,0,0,0
 2023-06-24 15:08:29.943,-44204.8662,30519.20599,3240.511208,23520.51717,19417.96624,-63803.54629,11602.54468,-55752.42558,-0.02,0.098,-0.996,192,0,0,0,0,0,0,0,0,0,0
 2023-06-24 15:08:29.943,-43938.27694,30692.20849,3396.794605,23728.90249,19565.44305,-63508.61502,11755.11769,-55594.24229,-0.02,0.098,-0.996,192,0,0,0,0,0,0,0,0,0,0
 2023-06-24 15:08:29.943,-43861.25283,29640.60362,2331.443409,22714.13329,18496.85085,-62483.58637,10693.58864,-54970.56156,-0.02,0.098,-0.996,192,0,0,0,0,0,0,0,0,0,0
 2023-06-24 15:08:29.943,-44074.26495,29012.87723,1718.156245,22062.87051,17890.62683,-62233.22448,10089.89037,-54803.32581,-0.02,0.098,-0.996,192,0,0,0,0,0,0,0,0,0,0
 2023-06-24 15:08:29.943,-44267.33932,29559.0421,2280.0791,22553.24543,18450.44863,-63023.58216,10650.51683,-55267.54919,-0.02,0.098,-0.996,192,0,0,0,0,0,0,0,0,0,0
 2023-06-24 15:08:29.943,-44180.27928,30551.66072,3273.390624,23528.18382,19438.39573,-63792.8398,11635.64761,-55743.30607,-0.02,0.098,-0.996,192,0,0,0,0,0,0,0,0,0,0
 2023-06-24 15:08:29.943,-43921.78135,30683.44661,3387.988018,23704.0697,19553.61897,-63525.78116,11747.40633,-55603.56296,-0.02,0.098,-0.996,192,0,0,0,0,0,0,0,0,0,0
 2023-06-24 15:08:29.943,-43842.85734,29661.07782,2349.034232,22724.12452,18520.20842,-62506.80983,10706.79852,-54985.58193,-0.02,0.098,-0.996,192,0,0,0,0,0,0,0,0,0,0
 2023-06-24 15:08:29.943,-44045.14063,29073.20459,1774.817917,22102.23193,17942.72875,-62230.20699,10123.39564,-54803.25875,-0.022,0.102,-0.988,192,255,80,3,48,225,32,0,0,0,0
 2023-06-24 15:08:29.943,-44246.30633,29536.15392,2255.559236,22516.49916,18419.02207,-63017.10016,10602.34882,-55265.67164,-0.022,0.102,-0.988,192,0,0,0,0,0,0,0,0,0,0
 2023-06-24 15:08:29.943,-44164.18602,30527.25262,3246.792048,23487.74952,19404.80106,-63795.63377,11599.16956,-55744.87069,-0.022,0.102,-0.988,192,0,0,0,0,0,0,0,0,0,0
 2023-06-24 15:08:29.943,-43893.5958,30769.76905,3470.421251,23771.95195,19627.91617,-63534.29717,11822.03881,-55606.69221,-0.022,0.102,-0.988,192,0,0,0,0,0,0,0,0,0,0
 2023-06-24 15:08:29.943,-43804.38999,29782.06781,2465.8668,22831.12232,18623.7864,-62517.2928,10818.19961,-54991.79572,-0.022,0.102,-0.988,192,0,0,0,0,0,0,0,0,0,0
 2023-06-24 15:08:29.943,-44013.62467,29090.32602,1789.72653,22118.23578,17950.3954,-62227.7483,10150.70947,-54802.40939,-0.022,0.102,-0.988,192,0,0,0,0,0,0,0,0,0,0
 2023-06-24 15:08:29.943,-44213.73984,29549.92259,2270.289036,22525.48456,18423.38066,-62997.7659,10623.80649,-55252.93115,-0.022,0.102,-0.988,192,0,0,0,0,0,0,0,0,0,0
 2023-06-24 15:08:29.943,-44129.20554,30582.72965,3303.498424,23544.52295,19455.47246,-63775.24898,11659.69809,-55730.56558,-0.022,0.102,-0.988,192,0,0,0,0,0,0,0,0,0,0
 2023-06-24 15:08:29.943,-43871.04289,30753.25111,3453.74685,23772.6672,19623.87051,-63541.06975,11815.02036,-55610.04497,-0.022,0.102,-0.988,192,0,0,0,0,0,0,0,0,0,0
 2023-06-24 15:08:29.943,-43777.67966,29817.8306,2503.931821,22879.55855,18676.73769,-62530.078,10858.90214,-54997.74128,-0.022,0.102,-0.988,192,0,0,0,0,0,0,0,0,0,0
 2023-06-24 15:08:29.943,-43983.44981,29134.44837,1835.368792,22171.09766,18006.69944,-62220.7075,10191.05437,-54795.61446,-0.016,0.102,-0.996,192,255,128,3,48,224,224,0,0,0,0
 2023-06-24 15:08:29.943,-44191.4328,29530.25306,2253.949911,22509.27955,18418.53034,-62982.34319,10615.91633,-55241.64352,-0.016,0.102,-0.996,192,0,0,0,0,0,0,0,0,0,0
 2023-06-24 15:08:29.944,-44114.90042,30542.4518,3269.724938,23510.88357,19433.59011,-63770.64452,11619.30849,-55724.50825,-0.016,0.102,-0.996,192,0,0,0,0,0,0,0,0,0,0
 2023-06-24 15:08:29.944,-43848.82526,30804.59306,3510.475577,23818.44357,19679.10167,-63545.96478,11861.6014,-55606.89337,-0.016,0.102,-0.996,192,0,0,0,0,0,0,0,0,0,0
 2023-06-24 15:08:29.944,-43762.86045,29789.6674,2479.479012,22840.55475,18646.24991,-62553.74849,10848.46387,-55007.73251,-0.016,0.102,-0.996,192,0,0,0,0,0,0,0,0,0,0
 2023-06-24 15:08:29.944,-43973.57034,29047.38832,1753.561408,22078.00264,17919.86292,-62231.36928,10122.9039,-54797.4026,-0.016,0.102,-0.996,192,0,0,0,0,0,0,0,0,0,0
 2023-06-24 15:08:29.944,-44175.18308,29490.91399,2212.241556,22484.31265,18381.71701,-62972.39667,10575.61613,-55229.37241,-0.016,0.102,-0.996,192,0,0,0,0,0,0,0,0,0,0
 2023-06-24 15:08:29.944,-44110.6983,30443.50063,3165.431698,23424.13645,19335.28713,-63773.72906,11518.2339,-55723.32361,-0.016,0.102,-0.996,192,0,0,0,0,0,0,0,0,0,0
 2023-06-24 15:08:29.944,-43852.31213,30699.20459,3401.130843,23716.74314,19574.94254,-63570.73052,11763.76781,-55622.04786,-0.016,0.102,-0.996,192,0,0,0,0,0,0,0,0,0,0
 2023-06-24 15:08:29.944,-43761.92168,29731.64227,2421.297422,22781.18852,18591.24226,-62586.11382,10791.04224,-55029.77133,-0.016,0.102,-0.996,192,0,0,0,0,0,0,0,0,0,0
 2023-06-24 15:08:29.944,-43963.24384,29021.99674,1726.962832,22046.35257,17891.40915,-62241.36051,10101.91561,-54806.388,-0.02,0.096,-0.992,192,255,96,3,0,225,0,0,0,0,0
 2023-06-24 15:08:29.944,-44163.47076,29451.73138,2173.86361,22439.00567,18338.95812,-62967.0099,10542.62496,-55227.74073,-0.02,0.096,-0.992,192,0,0,0,0,0,0,0,0,0,0
 2023-06-24 15:08:29.944,-44097.77899,30429.97783,3155.105192,23405.78567,19317.09281,-63768.72227,11509.51672,-55719.70263,-0.02,0.096,-0.992,192,0,0,0,0,0,0,0,0,0,0
 2023-06-24 15:08:29.944,-43835.50362,30724.61852,3427.461198,23731.91997,19587.07954,-63581.74993,11780.48692,-55626.11587,-0.02,0.096,-0.992,192,0,0,0,0,0,0,0,0,0,0
 2023-06-24 15:08:29.944,-43732.19386,29829.20764,2510.637344,22881.05612,18679.75517,-62599.10018,10869.85449,-55034.12992,-0.02,0.096,-0.992,192,0,0,0,0,0,0,0,0,0,0
 2023-06-24 15:08:29.944,-43934.34303,29099.0432,1793.369865,22122.37085,17961.99595,-62238.45479,10148.49665,-54802.94583,-0.02,0.096,-0.992,192,0,0,0,0,0,0,0,0,0,0
 2023-06-24 15:08:29.944,-44144.49413,29466.19296,2179.809175,22442.76076,18348.79289,-62957.35394,10541.17209,-55220.63288,-0.02,0.096,-0.992,192,0,0,0,0,0,0,0,0,0,0
 2023-06-24 15:08:29.944,-44089.24062,30396.94195,3113.173319,23357.08122,19277.1279,-63771.56094,11466.06493,-55720.19437,-0.02,0.096,-0.992,192,0,0,0,0,0,0,0,0,0,0
 2023-06-24 15:08:29.944,-43831.99439,30695.89653,3397.353398,23680.08628,19553.59662,-63601.75474,11743.62889,-55637.64937,-0.02,0.096,-0.992,192,0,0,0,0,0,0,0,0,0,0
 2023-06-24 15:08:29.944,-43721.44267,29860.50008,2540.879254,22891.09205,18704.54326,-62623.01655,10892.318,-55047.02688,-0.02,0.096,-0.992,192,0,0,0,0,0,0,0,0,0,0
 2023-06-24 15:08:29.944,-43918.71916,29117.34928,1811.295964,22134.01611,17974.40117,-62243.14865,10164.03111,-54803.92931,-0.02,0.096,-0.99,192,255,96,3,0,225,16,0,0,0,0
 2023-06-24 15:08:29.944,-44127.19388,29471.95971,2186.67116,22435.29528,18344.65782,-62942.51239,10538.28872,-55210.44048,-0.02,0.096,-0.99,192,0,0,0,0,0,0,0,0,0,0
 2023-06-24 15:08:29.944,-44079.87524,30369.49401,3083.601962,23314.94818,19240.33692,-63764.69895,11432.33614,-55712.59477,-0.02,0.096,-0.99,192,0,0,0,0,0,0,0,0,0,0
 2023-06-24 15:08:29.944,-43828.93221,30671.28726,3365.815087,23653.04067,19524.27113,-63617.73623,11718.86316,-55642.92439,-0.02,0.096,-0.99,192,0,0,0,0,0,0,0,0,0,0
 2023-06-24 15:08:29.944,-43711.63025,29887.59039,2566.874333,22918.83056,18727.85613,-62646.12825,10917.57547,-55058.71684,-0.02,0.096,-0.99,192,0,0,0,0,0,0,0,0,0,0
 2023-06-24 15:08:29.944,-43905.66574,29128.70397,1821.667173,22144.34262,17979.63148,-62248.37896,10170.17784,-54802.69996,-0.02,0.096,-0.99,192,0,0,0,0,0,0,0,0,0,0
 2023-06-24 15:08:29.944,-44108.91016,29501.82164,2214.946117,22465.7607,18368.35067,-62927.11203,10559.47817,-55194.57074,-0.02,0.096,-0.99,192,0,0,0,0,0,0,0,0,0,0
 2023-06-24 15:08:29.944,-44059.95984,30416.38797,3132.731096,23368.59237,19286.35917,-63747.06343,11474.29037,-55697.93203,-0.02,0.096,-0.99,192,0,0,0,0,0,0,0,0,0,0
 2023-06-24 15:08:29.944,-43808.52506,30731.07818,3429.092876,23721.3923,19585.91724,-63614.31642,11772.84262,-55636.57649,-0.02,0.096,-0.99,192,0,0,0,0,0,0,0,0,0,0
 2023-06-24 15:08:29.944,-43692.31834,29927.48826,2608.068598,22962.75174,18768.33514,-62655.24777,10962.88245,-55058.06864,-0.02,0.096,-0.99,192,0,0,0,0,0,0,0,0,0,0
 2023-06-24 15:08:30.422,-43882.55404,29155.95074,1855.150086,22176.28326,18010.40983,-62242.32164,10202.29729,-54795.94973,-0.018,0.092,-0.992,192,255,112,2,224,225,0,0,0,0,0
 2023-06-24 15:08:30.422,-44091.63226,29468.38343,2190.806233,22441.77728,18338.75696,-62912.49399,10531.85141,-55187.66405,-0.018,0.092,-0.992,192,0,0,0,0,0,0,0,0,0,0
 2023-06-24 15:08:30.422,-44043.4866,30390.66111,3119.96825,23336.49526,19258.01715,-63738.65917,11452.34095,-55695.18276,-0.018,0.092,-0.992,192,0,0,0,0,0,0,0,0,0,0
 2023-06-24 15:08:30.422,-43794.57757,30719.2094,3425.69541,23711.46813,19578.9435,-63625.64875,11758.58221,-55644.77958,-0.018,0.092,-0.992,192,0,0,0,0,0,0,0,0,0,0
 2023-06-24 15:08:30.422,-43684.45053,29876.48158,2559.721775,22923.23386,18728.30316,-62683.70154,10912.25575,-55078.87811,-0.018,0.092,-0.992,192,0,0,0,0,0,0,0,0,0,0
 2023-06-24 15:08:30.422,-43871.93696,29102.32891,1798.17549,22129.50106,17961.77244,-62254.32453,10159.20313,-54805.27041,-0.018,0.092,-0.992,192,0,0,0,0,0,0,0,0,0,0
 2023-06-24 15:08:30.422,-44070.3534,29478.28525,2197.802329,22459.61397,18352.88326,-62902.68158,10538.53459,-55180.80207,-0.018,0.092,-0.992,192,0,0,0,0,0,0,0,0,0,0
 2023-06-24 15:08:30.422,-44021.91717,30420.50069,3142.476456,23383.34452,19291.70123,-63729.62907,11462.511,-55686.95732,-0.018,0.092,-0.992,192,0,0,0,0,0,0,0,0,0,0
 2023-06-24 15:08:30.422,-43780.96536,30695.40479,3397.308695,23691.95505,19546.77934,-63636.66816,11727.26741,-55651.35099,-0.018,0.092,-0.992,192,0,0,0,0,0,0,0,0,0,0
 2023-06-24 15:08:30.422,-43666.0774,29880.84017,2567.254313,22913.68966,18719.18365,-62702.74522,10913.66391,-55090.43397,-0.018,0.092,-0.992,192,0,0,0,0,0,0,0,0,0,0
 2023-06-24 15:08:30.422,-43850.45694,29122.19961,1820.191958,22134.99959,17975.92109,-62256.44794,10169.28377,-54807.34912,-0.016,0.09,-0.99,192,255,128,2,208,225,16,0,0,0,0
 2023-06-24 15:08:30.422,-44060.02689,29428.15029,2143.331128,22393.78809,18296.82509,-62897.92066,10488.31022,-55178.72336,-0.016,0.09,-0.99,192,0,0,0,0,0,0,0,0,0,0
 2023-06-24 15:08:30.422,-44020.35254,30344.01302,3063.820668,23296.61975,19217.33698,-63731.68543,11396.72981,-55686.71145,-0.016,0.09,-0.99,192,0,0,0,0,0,0,0,0,0,0
 2023-06-24 15:08:30.422,-43770.16947,30717.46596,3422.655573,23704.96377,19574.98724,-63645.38534,11743.18185,-55648.8923,-0.016,0.09,-0.99,192,0,0,0,0,0,0,0,0,0,0
 2023-06-24 15:08:30.422,-43645.40203,29949.7953,2638.466971,22983.44946,18794.82195,-62715.15044,10965.83289,-55088.64583,-0.016,0.09,-0.99,192,0,0,0,0,0,0,0,0,0,0
 2023-06-24 15:08:30.422,-43818.06926,29222.53659,1920.171311,22233.86136,18074.44758,-62246.56847,10253.28162,-54790.54061,-0.016,0.09,-0.99,192,0,0,0,0,0,0,0,0,0,0
 2023-06-24 15:08:30.422,-44038.09983,29441.58369,2153.99291,22406.1933,18303.73178,-62883.36967,10483.43754,-55162.29482,-0.016,0.09,-0.99,192,0,0,0,0,0,0,0,0,0,0
 2023-06-24 15:08:30.422,-44009.24373,30322.13066,3035.635118,23272.8822,19187.67621,-63727.59506,11370.57827,-55678.79894,-0.016,0.09,-0.99,192,0,0,0,0,0,0,0,0,0,0
 2023-06-24 15:08:30.423,-43769.14129,30658.50206,3357.433183,23634.37696,19506.21092,-63664.29492,11689.78354,-55658.34709,-0.016,0.09,-0.99,192,0,0,0,0,0,0,0,0,0,0
 2023-06-24 15:08:30.423,-43645.82671,29884.72937,2568.058976,22900.39037,18722.33525,-62745.72763,10902.30923,-55108.13655,-0.016,0.09,-0.99,192,0,0,0,0,0,0,0,0,0,0
 2023-06-24 15:08:30.423,-43829.11102,29044.66141,1735.791771,22057.34963,17898.40524,-62274.26228,10070.26554,-54811.01481,-0.016,0.092,-0.988,192,255,128,2,224,225,32,0,0,0,0
 2023-06-24 15:08:30.423,-44029.4497,29410.44771,2118.744209,22379.03594,18279.99422,-62878.16171,10456.43663,-55156.8857,-0.016,0.092,-0.988,192,0,0,0,0,0,0,0,0,0,0
 2023-06-24 15:08:30.423,-43996.52559,30321.16953,3032.371763,23276.39142,19194.78407,-63720.33074,11379.74249,-55669.90294,-0.016,0.092,-0.988,192,0,0,0,0,0,0,0,0,0,0
 2023-06-24 15:08:30.423,-43757.00429,30668.85092,3363.848134,23655.3876,19525.50048,-63673.12386,11701.78642,-55660.78343,-0.016,0.092,-0.988,192,0,0,0,0,0,0,0,0,0,0
 2023-06-24 15:08:30.423,-43620.34573,29978.80786,2659.20939,23012.73024,18824.32626,-62754.02013,11004.52375,-55109.85763,-0.016,0.092,-0.988,192,0,0,0,0,0,0,0,0,0,0
 2023-06-24 15:08:30.423,-43790.17428,29201.68241,1898.959505,22219.31037,18059.49426,-62257.96786,10249.39242,-54796.55323,-0.016,0.092,-0.988,192,0,0,0,0,0,0,0,0,0,0
 2023-06-24 15:08:30.423,-44010.40602,29416.95206,2138.860779,22389.38479,18291.12539,-62867.23171,10470.33941,-55149.39787,-0.016,0.092,-0.988,192,0,0,0,0,0,0,0,0,0,0
 2023-06-24 15:08:30.423,-43984.03096,30324.81287,3051.773077,23291.09887,19208.6198,-63716.88857,11379.54132,-55664.80674,-0.016,0.092,-0.988,192,0,0,0,0,0,0,0,0,0,0
 2023-06-24 15:08:30.423,-43747.95184,30667.50981,3374.174639,23661.26611,19532.31776,-63686.87018,11698.38896,-55662.14689,-0.016,0.092,-0.988,192,0,0,0,0,0,0,0,0,0,0
 2023-06-24 15:08:30.423,-43603.58192,30003.14891,2692.982875,23027.30358,18844.93456,-62770.9404,11026.54022,-55112.47279,-0.016,0.092,-0.988,192,0,0,0,0,0,0,0,0,0,0
 2023-06-24 15:08:30.423,-43777.38908,29164.10913,1864.828392,22184.79928,18020.91515,-62264.36046,10208.93576,-54795.90503,-0.02,0.094,-0.99,192,255,96,2,240,225,16,0,0,0,0
 2023-06-24 15:08:30.423,-44003.27581,29346.40996,2066.262313,22333.97482,18226.03711,-62864.19187,10407.15103,-55143.94404,-0.02,0.094,-0.99,192,0,0,0,0,0,0,0,0,0,0
 2023-06-24 15:08:30.423,-43986.80258,30223.9618,2948.753887,23198.45089,19108.28282,-63724.30935,11281.23835,-55665.92433,-0.02,0.094,-0.99,192,0,0,0,0,0,0,0,0,0,0
 2023-06-24 15:08:30.423,-43741.69335,30646.38742,3358.41666,23641.73068,19512.91645,-63700.88472,11682.72038,-55666.75135,-0.02,0.094,-0.99,192,0,0,0,0,0,0,0,0,0,0
 2023-06-24 15:08:30.423,-43604.72186,29916.26768,2606.906308,22949.02777,18766.27878,-62801.87521,10949.73963,-55130.22007,-0.02,0.094,-0.99,192,0,0,0,0,0,0,0,0,0,0
 2023-06-24 15:08:30.423,-43770.34828,29113.1248,1811.072446,22137.19006,17974.13295,-62281.23603,10161.72888,-54803.52697,-0.02,0.094,-0.99,192,0,0,0,0,0,0,0,0,0,0
 2023-06-24 15:08:30.423,-43983.2263,29392.02987,2113.491549,22363.54618,18267.92428,-62858.0675,10451.5416,-55134.89159,-0.02,0.094,-0.99,192,0,0,0,0,0,0,0,0,0,0
 2023-06-24 15:08:30.423,-43959.28758,30329.50673,3054.49999,23275.02796,19203.18832,-63708.75254,11380.21188,-55648.60173,-0.02,0.094,-0.99,192,0,0,0,0,0,0,0,0,0,0
 2023-06-24 15:08:30.423,-43724.90719,30676.65168,3383.472965,23664.26124,19537.83864,-63706.51736,11709.766,-55663.97973,-0.02,0.094,-0.99,192,0,0,0,0,0,0,0,0,0,0
 2023-06-24 15:08:30.423,-43586.77341,29945.92845,2633.795456,22980.16375,18794.21846,-62818.92959,10963.35184,-55135.24921,-0.02,0.094,-0.99,192,0,0,0,0,0,0,0,0,0,0
 2023-06-24 15:08:30.423,-43748.1083,29151.21217,1851.797325,22171.56704,18008.37582,-62281.21367,10182.53835,-54797.89433,-0.024,0.096,-0.984,192,255,64,3,0,225,64,0,0,0,0
 2023-06-24 15:08:30.423,-43972.25159,29352.93667,2071.537324,22338.15459,18233.27908,-62849.70794,10406.01109,-55128.20841,-0.024,0.096,-0.984,192,0,0,0,0,0,0,0,0,0,0
 2023-06-24 15:08:30.423,-43963.04267,30210.75192,2934.158198,23181.84354,19096.5258,-63714.56399,11270.3754,-55654.10026,-0.024,0.096,-0.984,192,0,0,0,0,0,0,0,0,0,0
 2023-06-24 15:08:30.423,-43725.28717,30607.87536,3317.758836,23592.95918,19469.4423,-63726.09749,11649.25982,-55676.54141,-0.024,0.096,-0.984,192,0,0,0,0,0,0,0,0,0,0
 2023-06-24 15:08:30.423,-43575.03874,29963.20635,2656.840105,22984.16471,18806.51192,-62840.07434,10992.25265,-55146.15686,-0.024,0.096,-0.984,192,0,0,0,0,0,0,0,0,0,0
 2023-06-24 15:08:30.423,-43729.15402,29154.20731,1858.726365,22168.19193,18008.93462,-62286.24282,10195.61412,-54799.12368,-0.024,0.096,-0.984,192,0,0,0,0,0,0,0,0,0,0
 2023-06-24 15:08:30.423,-43946.34592,29371.06393,2097.375941,22340.92621,18242.95738,-62837.74976,10428.36284,-55116.5408,-0.024,0.096,-0.984,192,0,0,0,0,0,0,0,0,0,0
 2023-06-24 15:08:30.423,-43938.63457,30241.44086,2970.94917,23204.03882,19121.60446,-63705.0645,11294.55999,-55642.4997,-0.024,0.096,-0.984,192,0,0,0,0,0,0,0,0,0,0
 2023-06-24 15:08:30.423,-43698.59918,30682.37372,3392.972457,23682.74613,19546.39936,-63729.76318,11716.51622,-55671.04288,-0.024,0.096,-0.984,192,0,0,0,0,0,0,0,0,0,0
 2023-06-24 15:08:30.423,-43550.74239,30026.46178,2719.067361,23064.6757,18868.51565,-62854.13359,11044.64514,-55149.86725,-0.024,0.096,-0.984,192,0,0,0,0,0,0,0,0,0,0
 2023-06-24 15:08:30.423,-43708.97039,29172.66985,1872.092709,22211.10728,18027.48657,-62291.07079,10212.5791,-54801.09063,-0.024,0.096,-0.99,192,255,64,3,0,225,16,0,0,0,0
 2023-06-24 15:08:30.423,-43932.73371,29340.41969,2061.590798,22344.99423,18222.23732,-62834.53111,10407.15103,-55116.58551,-0.024,0.096,-0.99,192,0,0,0,0,0,0,0,0,0,0
 2023-06-24 15:08:30.423,-43932.62195,30187.99784,2920.233061,23168.92423,19077.12449,-63709.15487,11259.26659,-55645.60659,-0.024,0.096,-0.99,192,0,0,0,0,0,0,0,0,0,0
 2023-06-24 15:08:30.423,-43690.15022,30649.22609,3366.150363,23644.59171,19518.41498,-63744.96236,11705.80974,-55681.41409,-0.024,0.096,-0.99,192,0,0,0,0,0,0,0,0,0,0
 2023-06-24 15:08:30.423,-43534.96206,30009.09448,2705.745722,23047.97894,18862.03365,-62873.87018,11055.66455,-55162.96538,-0.024,0.096,-0.99,192,0,0,0,0,0,0,0,0,0,0
 2023-06-24 15:08:30.423,-43687.26685,29160.37639,1864.560171,22200.04317,18023.97734,-62292.16603,10221.69861,-54799.92834,-0.024,0.096,-0.99,192,0,0,0,0,0,0,0,0,0,0
 2023-06-24 15:08:30.423,-43910.35961,29332.06014,2055.824048,22335.94177,18215.12946,-62818.92959,10397.85271,-55105.20847,-0.024,0.096,-0.99,192,0,0,0,0,0,0,0,0,0,0
 2023-06-24 15:08:30.423,-43913.95824,30192.35643,2921.976497,23174.80274,19081.77365,-63697.4202,11262.95462,-55637.22469,-0.024,0.096,-0.99,192,0,0,0,0,0,0,0,0,0,0
 2023-06-24 15:08:30.423,-43673.83345,30678.19395,3395.989942,23680.64507,19555.00478,-63752.89723,11735.4258,-55683.87278,-0.024,0.096,-0.99,192,0,0,0,0,0,0,0,0,0,0
 2023-06-24 15:08:30.423,-43516.70069,30045.55017,2743.430763,23095.54346,18904.25609,-62892.98092,11092.29906,-55172.97896,-0.024,0.096,-0.99,192,0,0,0,0,0,0,0,0,0,0
 2023-06-24 15:08:30.423,-43670.86067,29135.47655,1837.112229,22184.66517,18002.78789,-62298.93861,10199.68214,-54806.16448,-0.02,0.09,-0.99,192,255,96,2,208,225,16,0,0,0,0
 2023-06-24 15:08:30.423,-43892.92525,29294.44215,2015.546205,22297.18385,18180.12663,-62809.34069,10381.55828,-55101.20751,-0.02,0.09,-0.99,192,0,0,0,0,0,0,0,0,0,0
 2023-06-24 15:08:30.423,-43895.62981,30187.21553,2914.823939,23162.06225,19076.99038,-63684.41149,11274.30931,-55628.9769,-0.02,0.09,-0.99,192,0,0,0,0,0,0,0,0,0,0
 2023-06-24 15:08:30.423,-43657.1367,30666.21341,3381.573067,23663.41188,19541.97372,-63757.41229,11739.47146,-55684.76685,-0.02,0.09,-0.99,192,0,0,0,0,0,0,0,0,0,0
 2023-06-24 15:08:30.423,-43495.42183,30030.21688,2728.030411,23070.71067,18887.15701,-62908.62714,11086.66642,-55179.908,-0.02,0.09,-0.99,192,0,0,0,0,0,0,0,0,0,0
 2023-06-24 15:08:30.423,-43639.18825,29159.75054,1864.649578,22200.4902,18023.64207,-62296.2564,10222.12329,-54801.09063,-0.02,0.09,-0.99,192,0,0,0,0,0,0,0,0,0,0
 2023-06-24 15:08:30.423,-43869.34416,29260.02047,1981.370387,22269.46768,18139.55821,-62801.15995,10330.10457,-55094.0773,-0.02,0.09,-0.99,192,0,0,0,0,0,0,0,0,0,0
 2023-06-24 15:08:30.423,-43893.32758,30070.49472,2796.627915,23054.95269,18954.83809,-63694.1792,11147.21729,-55634.92246,-0.02,0.09,-0.99,192,0,0,0,0,0,0,0,0,0,0
 2023-06-24 15:08:30.423,-43653.56042,30603.18149,3315.233089,23611.10879,19473.71149,-63778.86996,11660.10042,-55698.24495,-0.02,0.09,-0.99,192,0,0,0,0,0,0,0,0,0,0
 2023-06-24 15:08:30.423,-43477.831,30031.1333,2728.857425,23083.92055,18888.38636,-62927.9614,11080.16206,-55193.58727,-0.02,0.09,-0.99,192,0,0,0,0,0,0,0,0,0,0
 2023-06-24 15:08:30.423,-43613.93078,29155.4143,1864.582522,22204.08883,18021.76452,-62298.02219,10218.54701,-54804.46575,-0.022,0.1,-0.982,192,255,80,3,32,225,80,0,0,0,0
 2023-06-24 15:08:30.423,-43841.09155,29264.58022,1992.456852,22277.00022,18148.25304,-62784.79848,10337.63711,-55086.74593,-0.022,0.1,-0.982,192,0,0,0,0,0,0,0,0,0,0
 2023-06-24 15:08:30.423,-43856.29074,30142.35558,2876.64716,23118.5881,19025.49196,-63671.89451,11221.40273,-55620.0809,-0.022,0.1,-0.982,192,0,0,0,0,0,0,0,0,0,0
 2023-06-24 15:08:30.423,-43619.92104,30673.88006,3394.04534,23666.65288,19537.41396,-63777.32769,11739.40441,-55694.75808,-0.022,0.1,-0.982,192,0,0,0,0,0,0,0,0,0,0
 2023-06-24 15:08:30.423,-43443.25285,30122.30606,2819.113769,23171.00294,18977.391,-62939.00316,11183.38241,-55196.09066,-0.022,0.1,-0.982,192,0,0,0,0,0,0,0,0,0,0
 2023-06-24 15:08:30.423,-43587.9357,29168.22185,1868.78465,22216.15877,18035.75671,-62304.10186,10243.91624,-54804.55515,-0.022,0.1,-0.982,192,0,0,0,0,0,0,0,0,0,0
 2023-06-24 15:08:30.423,-43816.6611,29269.49761,1993.06035,22274.29566,18157.10433,-62777.4224,10351.53989,-55077.53701,-0.022,0.1,-0.982,192,0,0,0,0,0,0,0,0,0,0
 2023-06-24 15:08:30.423,-43835.59303,30138.89106,2871.170982,23119.03514,19025.00022,-63668.87703,11209.10927,-55612.45896,-0.022,0.1,-0.982,192,0,0,0,0,0,0,0,0,0,0
 2023-06-24 15:08:30.423,-43597.27873,30688.31929,3408.328105,23692.31268,19557.8211,-63787.43068,11752.12255,-55695.74156,-0.022,0.1,-0.982,192,0,0,0,0,0,0,0,0,0,0
 2023-06-24 15:08:30.423,-43420.58819,30114.08062,2815.40338,23162.64339,18969.99257,-62959.3656,11166.35038,-55206.66304,-0.022,0.1,-0.982,192,0,0,0,0,0,0,0,0,0,0
 2023-06-24 15:08:30.423,-43553.46931,29201.5036,1912.929346,22258.42592,18069.55255,-62301.97845,10257.17083,-54801.38121,-0.028,0.094,-0.986,192,255,32,2,240,225,48,0,0,0,0
 2023-06-24 15:08:30.423,-43785.70393,29282.75219,2014.428617,22301.36362,18169.08487,-62761.70913,10350.77993,-55068.19398,-0.028,0.094,-0.986,192,0,0,0,0,0,0,0,0,0,0
 2023-06-24 15:08:30.423,-43817.15284,30118.03688,2855.904741,23109.15567,19010.0916,-63659.51164,11199.72154,-55610.64847,-0.028,0.094,-0.986,192,0,0,0,0,0,0,0,0,0,0
 2023-06-24 15:08:30.423,-43594.35065,30593.99493,3315.456607,23609.96885,19475.38787,-63805.08856,11664.83899,-55712.9524,-0.028,0.094,-0.986,192,0,0,0,0,0,0,0,0,0,0
 2023-06-24 15:08:30.423,-43411.64749,30060.54819,2763.569684,23113.29074,18921.51164,-62984.17604,11124.21735,-55226.84666,-0.028,0.094,-0.986,192,0,0,0,0,0,0,0,0,0,0
 2023-06-24 15:08:30.423,-43535.00677,29182.90695,1890.376436,22244.41138,18051.35823,-62308.88513,10244.38563,-54808.39965,-0.028,0.094,-0.986,192,0,0,0,0,0,0,0,0,0,0
 2023-06-24 15:08:30.423,-43765.4756,29246.31885,1973.636684,22273.33454,18135.22197,-62753.97542,10314.72657,-55064.86357,-0.028,0.094,-0.986,192,0,0,0,0,0,0,0,0,0,0
 2023-06-24 15:08:30.423,-43797.93034,30095.59573,2830.691973,23087.63094,18987.49399,-63649.00632,11175.71577,-55603.58532,-0.028,0.094,-0.986,192,0,0,0,0,0,0,0,0,0,0
 2023-06-24 15:08:30.423,-43572.02125,30638.67606,3359.44484,23640.56839,19510.63657,-63805.22267,11707.3073,-55710.49371,-0.028,0.094,-0.986,192,0,0,0,0,0,0,0,0,0,0
 2023-06-24 15:08:30.423,-43395.77775,30065.75615,2769.515248,23105.64644,18916.90718,-63002.32565,11115.38841,-55237.88842,-0.028,0.094,-0.986,192,0,0,0,0,0,0,0,0,0,0
 2023-06-24 15:08:30.423,-43520.0758,29162.16453,1869.03052,22214.43769,18026.70425,-62316.46238,10222.77149,-54813.71937,-0.028,0.096,-0.988,192,255,32,3,0,225,32,0,0,0,0
 2023-06-24 15:08:30.423,-43746.58838,29245.87181,1967.646416,22271.68051,18138.23946,-62741.50315,10326.68475,-55057.28633,-0.028,0.096,-0.988,192,0,0,0,0,0,0,0,0,0,0
 2023-06-24 15:08:30.424,-43787.08974,30046.46659,2778.433595,23033.80794,18945.51741,-63643.61955,11140.35531,-55601.66307,-0.028,0.096,-0.988,192,0,0,0,0,0,0,0,0,0,0
 2023-06-24 15:08:30.424,-43560.08542,30596.99006,3317.334153,23596.84838,19476.99719,-63818.58901,11664.2802,-55719.03208,-0.028,0.096,-0.988,192,0,0,0,0,0,0,0,0,0,0
 2023-06-24 15:08:30.424,-43368.97801,30103.66471,2806.283868,23150.01466,18963.39881,-63019.33533,11146.21146,-55248.12552,-0.028,0.096,-0.988,192,0,0,0,0,0,0,0,0,0,0
 2023-06-24 15:08:30.424,-43483.82127,29220.0779,1930.162541,22271.23347,18088.8421,-62315.32244,10276.37098,-54813.58526,-0.028,0.096,-0.988,192,0,0,0,0,0,0,0,0,0,0
 2023-06-24 15:08:30.424,-43720.72741,29208.76792,1934.185855,22227.82638,18099.6827,-62734.19413,10284.77523,-55056.90635,-0.028,0.096,-0.988,192,0,0,0,0,0,0,0,0,0,0
 2023-06-24 15:08:30.424,-43759.6418,30084.50926,2820.745447,23063.33459,18975.64757,-63628.66624,11168.36204,-55594.73402,-0.028,0.096,-0.988,192,0,0,0,0,0,0,0,0,0,0
 2023-06-24 15:08:30.424,-43538.29247,30665.54286,3391.296076,23646.96099,19536.94457,-63818.29844,11746.55697,-55719.07678,-0.028,0.096,-0.988,192,0,0,0,0,0,0,0,0,0,0
 2023-06-24 15:08:30.424,-43351.90128,30129.8833,2832.211892,23170.33239,18990.10914,-63037.59671,11184.65646,-55259.74843,-0.028,0.096,-0.988,192,0,0,0,0,0,0,0,0,0,0
 2023-06-24 15:08:30.424,-43468.91266,29187.01967,1888.118909,22252.3239,18055.69447,-62326.02892,10235.44493,-54822.14598,-0.024,0.09,-0.99,192,255,64,2,208,225,16,0,0,0,0
 2023-06-24 15:08:30.424,-43696.2299,29227.18575,1945.674651,22247.96531,18109.18219,-62718.39144,10296.37579,-55048.77031,-0.024,0.09,-0.99,192,0,0,0,0,0,0,0,0,0,0
 2023-06-24 15:08:30.424,-43736.41834,30089.76192,2821.572461,23077.30443,18978.93327,-63613.02002,11168.58556,-55586.0839,-0.024,0.09,-0.99,192,0,0,0,0,0,0,0,0,0,0
 2023-06-24 15:08:30.424,-43511.62684,30698.53404,3420.845082,23700.33696,19582.22921,-63820.06423,11773.8708,-55722.51895,-0.024,0.09,-0.99,192,0,0,0,0,0,0,0,0,0,0
 2023-06-24 15:08:30.424,-43319.04421,30193.54107,2898.44011,23240.67333,19059.10898,-63049.77841,11245.00617,-55270.47727,-0.024,0.09,-0.99,192,0,0,0,0,0,0,0,0,0,0
 2023-06-24 15:08:30.424,-43438.38017,29197.90497,1903.832186,22262.20337,18070.69249,-62330.99101,10246.21847,-54829.61146,-0.024,0.09,-0.99,192,0,0,0,0,0,0,0,0,0,0
 2023-06-24 15:08:30.424,-43672.44764,29201.68241,1923.032334,22221.94788,18092.19487,-62713.74228,10275.3875,-55047.09393,-0.024,0.09,-0.99,192,0,0,0,0,0,0,0,0,0,0
 2023-06-24 15:08:30.424,-43717.30759,30069.13126,2798.080778,23057.27727,18967.37742,-63610.2037,11171.51364,-55582.79819,-0.024,0.09,-0.99,192,0,0,0,0,0,0,0,0,0,0
 2023-06-24 15:08:30.424,-43501.36739,30654.88108,3375.426337,23663.36717,19540.11852,-63838.3703,11748.79214,-55731.97374,-0.024,0.09,-0.99,192,0,0,0,0,0,0,0,0,0,0
 2023-06-24 15:08:30.424,-43300.04523,30206.23686,2908.699561,23265.61788,19079.67258,-63076.66756,11276.29862,-55284.29065,-0.024,0.09,-0.99,192,0,0,0,0,0,0,0,0,0,0
 2023-06-24 15:08:30.424,-43405.23254,29285.30029,1989.394664,22342.51318,18157.75253,-62332.08625,10352.18809,-54826.9516,-0.024,0.09,-0.99,192,0,0,0,0,0,0,0,0,0,0
 2023-06-24 15:08:30.424,-43632.54978,29312.65882,2038.613205,22320.42966,18199.43854,-62690.54117,10397.67389,-55032.38649,-0.02,0.094,-0.986,192,255,96,2,240,225,48,0,0,0,0
 2023-06-24 15:08:30.424,-43687.26685,30115.26526,2850.875598,23094.15765,19006.38121,-63591.13766,11200.10152,-55574.97508,-0.02,0.094,-0.986,192,0,0,0,0,0,0,0,0,0,0
 2023-06-24 15:08:30.424,-43480.04383,30677.38929,3399.610925,23675.37006,19556.12237,-63841.72307,11753.75423,-55738.72396,-0.02,0.094,-0.986,192,0,0,0,0,0,0,0,0,0,0
 2023-06-24 15:08:30.424,-43277.71584,30239.4292,2939.880245,23279.47596,19101.53259,-63094.37014,11305.08766,-55297.03114,-0.02,0.094,-0.986,192,0,0,0,0,0,0,0,0,0,0
 2023-06-24 15:08:30.424,-43384.15484,29270.03405,1974.374291,22307.73387,18134.73024,-62341.54103,10344.78967,-54833.32185,-0.02,0.094,-0.986,192,0,0,0,0,0,0,0,0,0,0
 2023-06-24 15:08:30.424,-43617.32824,29250.49862,1974.150774,22250.78163,18133.72441,-62689.6471,10329.814,-55033.07939,-0.02,0.094,-0.986,192,0,0,0,0,0,0,0,0,0,0
