 Timestamp_formatted, EXG Channel 0, EXG Channel 1, EXG Channel 2, EXG Channel 3, EXG Channel 4, EXG Channel 5, EXG Channel 6, EXG Channel 7, Accel Channel 0, Accel Channel 1, Accel Channel 2, Other, Other.1, Other.2, Other.3, Other.4, Other.5, Other.6, Analog Channel 0, Analog Channel 1, Analog Channel 2, Other.7
 2023-06-24 15:06:26.708,-57448.38654,34329.262,7071.421393,29539.37257,23722.46518,-60444.19085,16774.1572,-52888.72008,-0.02,0.098,-0.992,192,255,96,3,16,225,0,0,0,0,0
 2023-06-24 15:06:26.708,-57153.61174,34391.80218,7106.066597,29688.21283,23762.54186,-60100.24221,16814.79267,-52683.01698,-0.02,0.098,-0.992,192,0,0,0,0,0,0,0,0,0,0
 2023-06-24 15:06:26.708,-57014.29331,32827.80592,5522.199633,28215.47874,22188.86729,-58772.19096,15252.89747,-51841.11617,-0.02,0.098,-0.992,192,0,0,0,0,0,0,0,0,0,0
 2023-06-24 15:06:26.708,-57241.83407,32037.47058,4752.405554,27379.45645,21422.00129,-58427.25884,14490.61358,-51624.59482,-0.02,0.098,-0.992,192,0,0,0,0,0,0,0,0,0,0
 2023-06-24 15:06:26.708,-57494.83347,32963.14573,5707.383836,28210.4943,22365.87076,-59424.88425,15433.05253,-52245.12395,-0.02,0.098,-0.992,192,0,0,0,0,0,0,0,0,0,0
 2023-06-24 15:06:26.708,-57451.78401,34296.76256,7043.325251,29520.23947,23693.31851,-60436.23363,16757.66161,-52889.45769,-0.02,0.098,-0.992,192,0,0,0,0,0,0,0,0,0,0
 2023-06-24 15:06:26.708,-57160.00434,34354.13949,7073.522457,29660.40726,23726.57791,-60111.01575,16776.32532,-52694.70694,-0.02,0.098,-0.992,192,0,0,0,0,0,0,0,0,0,0
 2023-06-24 15:06:26.708,-57011.85697,32816.89826,5516.052904,28214.71878,22178.0267,-58782.89745,15225.98597,-51851.73325,-0.02,0.098,-0.992,192,0,0,0,0,0,0,0,0,0,0
 2023-06-24 15:06:26.708,-57232.24517,32018.87393,4744.336575,27364.41372,21404.65634,-58421.46974,14464.73026,-51621.0409,-0.02,0.098,-0.992,192,0,0,0,0,0,0,0,0,0,0
 2023-06-24 15:06:26.708,-57486.11629,32902.28193,5654.611368,28163.64505,22313.74649,-59412.25552,15361.41519,-52238.28432,-0.02,0.098,-0.992,192,0,0,0,0,0,0,0,0,0,0
 2023-06-24 15:06:26.708,-57451.89577,34202.95229,6953.6277,29447.95393,23609.67828,-60439.40758,16656.72113,-52893.83863,-0.02,0.094,-0.988,192,255,96,2,240,225,32,0,0,0,0
 2023-06-24 15:06:26.708,-57152.09182,34352.79838,7074.483582,29665.74933,23739.54192,-60121.99046,16801.85101,-52704.98874,-0.02,0.094,-0.988,192,0,0,0,0,0,0,0,0,0,0
 2023-06-24 15:06:26.708,-56985.68308,32922.86788,5621.396675,28321.80599,22297.72029,-58783.83622,15365.3491,-51857.14237,-0.02,0.094,-0.988,192,0,0,0,0,0,0,0,0,0,0
 2023-06-24 15:06:26.708,-57202.4056,32101.7095,4821.338334,27447.31634,21496.07497,-58403.47658,14574.1197,-51615.45296,-0.02,0.094,-0.988,192,0,0,0,0,0,0,0,0,0,0
 2023-06-24 15:06:26.708,-57463.07164,32942.51507,5690.128289,28196.99385,22355.76777,-59388.24974,15422.10018,-52229.25421,-0.02,0.094,-0.988,192,0,0,0,0,0,0,0,0,0,0
 2023-06-24 15:06:26.708,-57422.72674,34308.63134,7055.864579,29545.40754,23714.10563,-60416.02766,16760.14266,-52884.11562,-0.02,0.094,-0.988,192,0,0,0,0,0,0,0,0,0,0
 2023-06-24 15:06:26.708,-57143.17347,34315.8286,7035.50214,29626.23145,23696.85008,-60132.24991,16749.97261,-52719.91971,-0.02,0.094,-0.988,192,0,0,0,0,0,0,0,0,0,0
 2023-06-24 15:06:26.709,-56980.38572,32844.72619,5543.657308,28236.93642,22210.772,-58803.46105,15271.8741,-51877.21424,-0.02,0.094,-0.988,192,0,0,0,0,0,0,0,0,0,0
 2023-06-24 15:06:26.709,-57195.38715,31995.09168,4716.553356,27344.61008,21388.02664,-58406.15879,14458.8741,-51626.76294,-0.02,0.094,-0.988,192,0,0,0,0,0,0,0,0,0,0
 2023-06-24 15:06:26.709,-57460.72471,32814.90896,5564.176209,28077.41202,22234.04017,-59384.69581,15305.98286,-52235.84798,-0.02,0.094,-0.988,192,0,0,0,0,0,0,0,0,0,0
 2023-06-24 15:06:26.709,-57422.32441,34221.83951,6970.436212,29454.10066,23633.34878,-60420.98974,16695.54611,-52894.50918,-0.014,0.092,-0.986,192,255,144,2,224,225,48,0,0,0,0
 2023-06-24 15:06:26.709,-57131.28235,34352.03843,7069.543847,29655.33342,23736.1221,-60142.62112,16794.27377,-52730.55914,-0.014,0.092,-0.986,192,0,0,0,0,0,0,0,0,0,0
 2023-06-24 15:06:26.709,-56973.34492,32834.95847,5529.575709,28211.45543,22196.22102,-58822.10241,15268.56604,-51895.65443,-0.014,0.092,-0.986,192,0,0,0,0,0,0,0,0,0,0
 2023-06-24 15:06:26.709,-57186.08882,31958.256,4675.560257,27284.99797,21340.01509,-58408.90806,14422.79839,-51633.40141,-0.014,0.092,-0.986,192,0,0,0,0,0,0,0,0,0,0
 2023-06-24 15:06:26.709,-57448.87828,32781.09077,5523.920718,28021.84558,22186.87799,-59374.43636,15258.50776,-52234.77509,-0.014,0.092,-0.986,192,0,0,0,0,0,0,0,0,0,0
 2023-06-24 15:06:26.709,-57415.86476,34175.07966,6920.05538,29403.65278,23580.71042,-60421.34737,16621.51714,-52901.43822,-0.014,0.092,-0.986,192,0,0,0,0,0,0,0,0,0,0
 2023-06-24 15:06:26.709,-57123.63805,34348.88683,7063.039489,29654.01467,23730.44476,-60151.71828,16764.88123,-52742.8526,-0.014,0.092,-0.986,192,0,0,0,0,0,0,0,0,0,0
 2023-06-24 15:06:26.709,-56961.14087,32872.01767,5562.298663,28253.81199,22230.30743,-58831.73601,15283.87699,-51907.72437,-0.014,0.092,-0.986,192,0,0,0,0,0,0,0,0,0,0
 2023-06-24 15:06:26.709,-57177.23753,31963.55336,4678.242466,27292.70933,21342.47379,-58404.46006,14417.36691,-51636.82123,-0.014,0.092,-0.986,192,0,0,0,0,0,0,0,0,0,0
 2023-06-24 15:06:26.709,-57450.68877,32735.64967,5479.530153,27971.82238,22142.19685,-59365.54037,15200.43793,-52235.04332,-0.014,0.092,-0.986,192,0,0,0,0,0,0,0,0,0,0
 2023-06-24 15:06:26.709,-57418.21169,34170.05052,6913.26045,29390.91228,23577.9388,-60417.32406,16620.77953,-52903.47223,-0.02,0.096,-0.986,192,255,96,3,0,225,48,0,0,0,0
 2023-06-24 15:06:26.709,-57119.83825,34386.25895,7101.059806,29678.40042,23768.97916,-60160.21194,16807.4613,-52749.9381,-0.02,0.096,-0.986,192,0,0,0,0,0,0,0,0,0,0
 2023-06-24 15:06:26.709,-56952.82602,32891.39663,5583.823393,28277.48248,22263.09744,-58843.1801,15303.16654,-51916.03922,-0.02,0.096,-0.986,192,0,0,0,0,0,0,0,0,0,0
 2023-06-24 15:06:26.709,-57167.73804,31935.25606,4652.984995,27283.16513,21328.01221,-58403.63305,14376.03854,-51638.69877,-0.02,0.096,-0.986,192,0,0,0,0,0,0,0,0,0,0
 2023-06-24 15:06:26.709,-57433.14265,32751.9888,5500.451386,27998.68917,22159.20653,-59349.38006,15214.09484,-52223.71098,-0.02,0.096,-0.986,192,0,0,0,0,0,0,0,0,0,0
 2023-06-24 15:06:26.709,-57404.59948,34192.33521,6937.556796,29409.77715,23596.13312,-60409.5233,16658.73279,-52896.54319,-0.02,0.096,-0.986,192,0,0,0,0,0,0,0,0,0,0
 2023-06-24 15:06:26.709,-57121.00054,34347.61278,7060.111411,29642.52587,23731.78586,-60177.10986,16775.85593,-52760.55518,-0.02,0.096,-0.986,192,0,0,0,0,0,0,0,0,0,0
 2023-06-24 15:06:26.709,-56958.27984,32837.97596,5526.781741,28221.87134,22205.0276,-58868.147,15248.31536,-51932.87008,-0.02,0.096,-0.986,192,0,0,0,0,0,0,0,0,0,0
 2023-06-24 15:06:26.709,-57163.91589,31922.73908,4634.611861,27262.10979,21312.07541,-58405.30943,14356.25724,-51638.83288,-0.02,0.096,-0.986,192,0,0,0,0,0,0,0,0,0,0
 2023-06-24 15:06:26.709,-57426.683,32761.46594,5496.986866,28010.46854,22173.82457,-59331.9457,15222.27558,-52211.90926,-0.02,0.096,-0.986,192,0,0,0,0,0,0,0,0,0,0
 2023-06-24 15:06:26.709,-57404.77829,34184.53445,6919.340124,29403.20574,23589.3829,-60402.66131,16645.79113,-52891.20113,-0.028,0.096,-0.99,192,255,32,3,0,225,16,0,0,0,0
 2023-06-24 15:06:26.709,-57119.79355,34364.95773,7070.661434,29658.12739,23742.62646,-60184.32947,16802.05218,-52765.3608,-0.028,0.096,-0.99,192,0,0,0,0,0,0,0,0,0,0
 2023-06-24 15:06:26.709,-56944.53352,32923.98547,5608.365608,28304.79631,22286.76793,-58870.51628,15347.95944,-51933.6971,-0.028,0.096,-0.99,192,0,0,0,0,0,0,0,0,0,0
 2023-06-24 15:06:27.187,-57140.51362,32038.74463,4743.442505,27377.82477,21421.86718,-58386.53396,14479.75063,-51625.24302,-0.028,0.096,-0.99,192,0,0,0,0,0,0,0,0,0,0
 2023-06-24 15:06:27.188,-57413.22725,32790.12087,5521.462026,28034.72019,22193.06942,-59311.67267,15243.33092,-52197.78296,-0.028,0.096,-0.99,192,0,0,0,0,0,0,0,0,0,0
 2023-06-24 15:06:27.188,-57405.13592,34144.27896,6872.312054,29362.99495,23543.8971,-60398.83916,16599.43361,-52890.10589,-0.028,0.096,-0.99,192,0,0,0,0,0,0,0,0,0,0
 2023-06-24 15:06:27.188,-57122.27459,34349.1774,7045.225149,29643.37524,23731.31647,-60197.58406,16777.62172,-52773.56389,-0.028,0.096,-0.99,192,0,0,0,0,0,0,0,0,0,0
 2023-06-24 15:06:27.188,-56934.98933,32976.66853,5651.683289,28364.25196,22344.18957,-58883.05561,15388.05847,-51936.11108,-0.028,0.096,-0.99,192,0,0,0,0,0,0,0,0,0,0
 2023-06-24 15:06:27.188,-57132.39993,32026.71939,4726.075199,27362.02209,21402.55528,-58389.05971,14458.13649,-51620.03507,-0.028,0.096,-0.99,192,0,0,0,0,0,0,0,0,0,0
 2023-06-24 15:06:27.188,-57413.40606,32708.55936,5436.592452,27951.37053,22102.58956,-59307.64935,15154.12511,-52191.52447,-0.028,0.096,-0.99,192,0,0,0,0,0,0,0,0,0,0
 2023-06-24 15:06:27.188,-57402.16314,34118.14977,6847.613376,29338.09511,23514.95159,-60396.53693,16562.39677,-52883.10979,-0.028,0.096,-0.99,192,0,0,0,0,0,0,0,0,0,0
 2023-06-24 15:06:27.188,-57117.98306,34357.00051,7063.374765,29645.18573,23730.02007,-60210.63748,16782.18148,-52776.08964,-0.024,0.1,-0.984,192,255,64,3,32,225,64,0,0,0,0
 2023-06-24 15:06:27.188,-56940.4208,32922.64437,5609.952582,28290.06652,22277.58137,-58909.49773,15337.94586,-51952.09258,-0.024,0.1,-0.984,192,0,0,0,0,0,0,0,0,0,0
 2023-06-24 15:06:27.188,-57126.83435,32017.39872,4728.64565,27348.34282,21394.32983,-58388.38916,14458.47177,-51619.56568,-0.024,0.1,-0.984,192,0,0,0,0,0,0,0,0,0,0
 2023-06-24 15:06:27.188,-57401.80551,32725.27846,5463.235732,27977.03033,22128.7411,-59288.80683,15183.42825,-52177.57698,-0.024,0.1,-0.984,192,0,0,0,0,0,0,0,0,0,0
 2023-06-24 15:06:27.188,-57396.68696,34125.68231,6867.282911,29349.33804,23526.64155,-60383.81879,16572.87974,-52871.12926,-0.024,0.1,-0.984,192,0,0,0,0,0,0,0,0,0,0
 2023-06-24 15:06:27.188,-57124.80034,34312.36408,7032.775227,29599.49876,23686.94826,-60221.58983,16736.06983,-52779.48711,-0.024,0.1,-0.984,192,0,0,0,0,0,0,0,0,0,0
 2023-06-24 15:06:27.188,-56946.07579,32893.14006,5590.730082,28252.35912,22243.36085,-58926.68622,15305.46877,-51956.62999,-0.024,0.1,-0.984,192,0,0,0,0,0,0,0,0,0,0
 2023-06-24 15:06:27.188,-57132.42228,31961.54171,4676.722548,27295.12331,21335.43299,-58394.78176,14398.41263,-51614.15656,-0.024,0.1,-0.984,192,0,0,0,0,0,0,0,0,0,0
 2023-06-24 15:06:27.188,-57414.72482,32622.54985,5363.949283,27869.36198,22022.77148,-59292.2043,15086.44403,-52170.02209,-0.024,0.1,-0.984,192,0,0,0,0,0,0,0,0,0,0
 2023-06-24 15:06:27.188,-57421.40799,33992.84589,6737.575738,29206.75626,23393.11223,-60402.86248,16451.62153,-52872.8727,-0.024,0.1,-0.984,192,0,0,0,0,0,0,0,0,0,0
 2023-06-24 15:06:27.188,-57142.77114,34267.52648,6988.183497,29546.54748,23645.88811,-60249.48481,16692.32746,-52784.09157,-0.018,0.098,-0.992,192,255,112,3,16,225,0,0,0,0,0
 2023-06-24 15:06:27.188,-56955.46352,32899.19739,5590.908896,28276.58841,22262.91862,-58952.83776,15305.31231,-51959.08868,-0.018,0.098,-0.992,192,0,0,0,0,0,0,0,0,0,0
 2023-06-24 15:06:27.188,-57148.5826,31873.87817,4585.214506,27219.01562,21260.19701,-58410.89736,14312.11255,-51612.43547,-0.018,0.098,-0.992,192,0,0,0,0,0,0,0,0,0,0
 2023-06-24 15:06:27.188,-57431.66744,32520.62589,5261.712404,27775.57406,21929.52,-59292.07019,14989.61627,-52157.50511,-0.018,0.098,-0.992,192,0,0,0,0,0,0,0,0,0,0
 2023-06-24 15:06:27.188,-57436.02603,33941.88391,6688.223086,29168.1995,23353.0132,-60403.93536,16397.70912,-52860.04279,-0.018,0.098,-0.992,192,0,0,0,0,0,0,0,0,0,0
 2023-06-24 15:06:27.188,-57157.6574,34245.68883,6965.943511,29540.31134,23633.08056,-60266.65095,16672.03208,-52781.69993,-0.018,0.098,-0.992,192,0,0,0,0,0,0,0,0,0,0
 2023-06-24 15:06:27.188,-56964.94066,32901.25375,5594.440471,28285.90909,22274.94386,-58971.88145,15318.72336,-51959.02162,-0.018,0.098,-0.992,192,0,0,0,0,0,0,0,0,0,0
 2023-06-24 15:06:27.188,-57149.99076,31890.17259,4602.425349,27241.21091,21282.99579,-58407.85753,14329.03282,-51599.73968,-0.018,0.098,-0.992,192,0,0,0,0,0,0,0,0,0,0
 2023-06-24 15:06:27.188,-57430.14752,32554.17586,5293.541288,27809.83929,21967.47326,-59277.11687,15008.79407,-52137.61206,-0.018,0.098,-0.992,192,0,0,0,0,0,0,0,0,0,0
 2023-06-24 15:06:27.188,-57434.26024,34004.80408,6745.644718,29224.70471,23419.68845,-60391.55249,16455.86836,-52844.57539,-0.018,0.098,-0.992,192,0,0,0,0,0,0,0,0,0,0
 2023-06-24 15:06:27.188,-57162.53008,34261.87149,6974.325415,29566.01585,23662.62956,-60275.50224,16697.06603,-52783.46572,-0.012,0.102,-0.992,192,255,160,3,48,225,0,0,0,0,0
 2023-06-24 15:06:27.188,-56970.30508,32886.27808,5578.593085,28278.84594,22267.12075,-58990.63456,15304.21708,-51969.43754,-0.012,0.102,-0.992,192,0,0,0,0,0,0,0,0,0,0
 2023-06-24 15:06:27.188,-57149.58842,31875.33103,4588.500212,27231.26438,21269.5624,-58408.41632,14320.22623,-51597.88449,-0.012,0.102,-0.992,192,0,0,0,0,0,0,0,0,0,0
 2023-06-24 15:06:27.188,-57428.33703,32539.26725,5276.375148,27808.43113,21956.54326,-59266.6339,15000.68039,-52128.09022,-0.012,0.102,-0.992,192,0,0,0,0,0,0,0,0,0,0
 2023-06-24 15:06:27.188,-57437.54595,33988.24143,6724.835244,29220.94962,23406.90326,-60391.41838,16454.88488,-52838.33925,-0.012,0.102,-0.992,192,0,0,0,0,0,0,0,0,0,0
 2023-06-24 15:06:27.188,-57156.78569,34329.44081,7041.380649,29625.35973,23724.67801,-60287.05809,16779.07458,-52779.82238,-0.012,0.102,-0.992,192,0,0,0,0,0,0,0,0,0,0
 2023-06-24 15:06:27.188,-56968.38283,32900.11381,5589.321922,28287.27255,22280.12947,-59015.73557,15341.96917,-51976.43363,-0.012,0.102,-0.992,192,0,0,0,0,0,0,0,0,0,0
 2023-06-24 15:06:27.188,-57143.06171,31877.02976,4588.902544,27231.01851,21274.18921,-58415.34536,14333.81609,-51592.8777,-0.012,0.102,-0.992,192,0,0,0,0,0,0,0,0,0,0
 2023-06-24 15:06:27.188,-57420.31275,32545.10105,5291.797852,27802.26204,21957.97377,-59257.35793,15023.30035,-52112.4887,-0.012,0.102,-0.992,192,0,0,0,0,0,0,0,0,0,0
 2023-06-24 15:06:27.188,-57435.31077,33974.15983,6728.009192,29195.02159,23388.10544,-60388.93734,16454.25903,-52826.8728,-0.012,0.102,-0.992,192,0,0,0,0,0,0,0,0,0,0
 2023-06-24 15:06:27.188,-57154.12583,34346.85282,7077.858696,29639.62014,23742.13472,-60296.26701,16793.69262,-52777.14017,-0.008,0.102,-0.99,192,255,192,3,48,225,16,0,0,0,0
 2023-06-24 15:06:27.188,-56958.23514,32953.04274,5660.623987,28344.18009,22329.72799,-59027.0232,15378.06724,-51976.29952,-0.008,0.102,-0.99,192,0,0,0,0,0,0,0,0,0,0
 2023-06-24 15:06:27.189,-57132.48934,31890.70903,4617.93746,27241.61324,21280.62651,-58411.97025,14344.47787,-51584.11581,-0.008,0.102,-0.99,192,0,0,0,0,0,0,0,0,0,0
 2023-06-24 15:06:27.189,-57417.76465,32494.47435,5249.62011,27751.79181,21905.53658,-59251.72529,14968.09154,-52102.72099,-0.008,0.102,-0.99,192,0,0,0,0,0,0,0,0,0,0
 2023-06-24 15:06:27.189,-57438.44002,33923.89076,6681.74108,29139.96925,23337.6352,-60391.19487,16391.36122,-52822.71538,-0.008,0.102,-0.99,192,0,0,0,0,0,0,0,0,0,0
 2023-06-24 15:06:27.189,-57161.92659,34311.80529,7041.447704,29581.05857,23699.39818,-60314.30487,16762.37783,-52781.72228,-0.008,0.102,-0.99,192,0,0,0,0,0,0,0,0,0,0
 2023-06-24 15:06:27.189,-56956.96109,32966.16321,5668.201228,28322.92358,22333.1031,-59047.63151,15403.43647,-51977.46181,-0.008,0.102,-0.99,192,0,0,0,0,0,0,0,0,0,0
 2023-06-24 15:06:27.189,-57123.30277,31915.16184,4631.460265,27247.84937,21297.45737,-58412.46199,14358.82769,-51569.8554,-0.008,0.102,-0.99,192,0,0,0,0,0,0,0,0,0,0
 2023-06-24 15:06:27.189,-57408.91336,32495.7931,5238.310127,27730.66941,21899.63572,-59239.61064,14966.81749,-52080.59276,-0.008,0.102,-0.99,192,0,0,0,0,0,0,0,0,0,0
 2023-06-24 15:06:27.189,-57433.50028,33930.23866,6678.008339,29129.37452,23341.01031,-60387.12685,16389.17075,-52803.8058,-0.008,0.102,-0.99,192,0,0,0,0,0,0,0,0,0,0
 2023-06-24 15:06:27.189,-57151.64478,34378.25702,7100.769234,29654.34994,23770.65555,-60324.31845,16806.38841,-52769.8088,-0.01,0.098,-0.992,192,255,176,3,16,225,0,0,0,0,0
 2023-06-24 15:06:27.189,-56945.47229,33027.31759,5721.800711,28409.69305,22402.01353,-59065.5129,15441.88147,-51973.86318,-0.01,0.098,-0.992,192,0,0,0,0,0,0,0,0,0,0
 2023-06-24 15:06:27.189,-57121.26876,31866.5915,4576.050291,27229.6327,21260.33113,-58420.12863,14307.26222,-51563.59691,-0.01,0.098,-0.992,192,0,0,0,0,0,0,0,0,0,0
 2023-06-24 15:06:27.189,-57402.54312,32490.09341,5224.76497,27759.27964,21907.79411,-59230.37937,14963.12946,-52062.44314,-0.01,0.098,-0.992,192,0,0,0,0,0,0,0,0,0,0
 2023-06-24 15:06:27.189,-57418.9493,33986.14037,6726.288107,29212.59006,23411.61947,-60374.18519,16463.75852,-52783.13044,-0.01,0.098,-0.992,192,0,0,0,0,0,0,0,0,0,0
 2023-06-24 15:06:27.189,-57143.66521,34405.39204,7121.779874,29693.86783,23810.19578,-60329.30289,16849.39317,-52764.89142,-0.01,0.098,-0.992,192,0,0,0,0,0,0,0,0,0,0
 2023-06-24 15:06:27.189,-56935.79399,33064.82381,5757.339985,28429.60846,22438.33511,-59078.54397,15480.7288,-51975.40545,-0.01,0.098,-0.992,192,0,0,0,0,0,0,0,0,0,0
 2023-06-24 15:06:27.189,-57109.44469,31878.46027,4591.137718,27215.39464,21268.22129,-58420.48626,14317.924,-51555.88556,-0.01,0.098,-0.992,192,0,0,0,0,0,0,0,0,0,0
 2023-06-24 15:06:27.189,-57395.05528,32452.00604,5189.650379,27707.06596,21871.29371,-59223.89736,14917.08486,-52053.03306,-0.01,0.098,-0.992,192,0,0,0,0,0,0,0,0,0,0
 2023-06-24 15:06:27.189,-57423.28553,33906.00936,6645.128923,29129.19571,23327.04047,-60382.07536,16362.99686,-52784.20332,-0.01,0.098,-0.992,192,0,0,0,0,0,0,0,0,0,0
 2023-06-24 15:06:27.189,-57156.00337,34302.01522,7021.129968,29584.79131,23699.06291,-60359.18717,16743.4459,-52778.63774,-0.016,0.096,-0.99,192,255,128,3,0,225,16,0,0,0,0
 2023-06-24 15:06:27.189,-56940.59961,33016.05231,5712.16711,28386.91662,22395.28565,-59112.2057,15435.42182,-51989.01766,-0.016,0.096,-0.99,192,0,0,0,0,0,0,0,0,0,0
 2023-06-24 15:06:27.189,-57103.94616,31862.747,4573.47984,27209.69495,21257.98419,-58428.68935,14293.11356,-51552.66691,-0.016,0.096,-0.99,192,0,0,0,0,0,0,0,0,0,0
 2023-06-24 15:06:27.189,-57386.3381,32438.19266,5181.894324,27688.91635,21856.49685,-59215.49311,14892.65441,-52038.8397,-0.016,0.096,-0.99,192,0,0,0,0,0,0,0,0,0,0
 2023-06-24 15:06:27.189,-57421.34093,33878.38261,6633.237795,29077.76434,23299.97251,-60378.72259,16339.66164,-52774.8603,-0.016,0.096,-0.99,192,0,0,0,0,0,0,0,0,0,0
 2023-06-24 15:06:27.189,-57145.60981,34372.8032,7105.530155,29624.51036,23769.29209,-60361.10942,16814.07741,-52772.33455,-0.016,0.096,-0.99,192,0,0,0,0,0,0,0,0,0,0
 2023-06-24 15:06:27.189,-56922.62881,33132.95193,5837.918024,28493.75796,22510.97828,-59117.32425,15555.18246,-51989.12942,-0.016,0.096,-0.99,192,0,0,0,0,0,0,0,0,0,0
 2023-06-24 15:06:27.189,-57082.86847,31954.56796,4675.157926,27298.58783,21350.31925,-58417.58054,14405.34167,-51544.62028,-0.016,0.096,-0.99,192,0,0,0,0,0,0,0,0,0,0
 2023-06-24 15:06:27.189,-57371.34008,32477.64349,5224.228528,27730.55765,21900.19451,-59195.77887,14958.81557,-52025.51806,-0.016,0.096,-0.99,192,0,0,0,0,0,0,0,0,0,0
 2023-06-24 15:06:27.189,-57410.34387,33909.13861,6662.026842,29117.63985,23329.81209,-60365.71388,16381.77233,-52765.74078,-0.016,0.096,-0.99,192,0,0,0,0,0,0,0,0,0,0
 2023-06-24 15:06:27.189,-57144.33576,34355.41354,7089.034568,29612.68629,23741.64298,-60370.63126,16786.36125,-52778.1013,-0.018,0.092,-0.986,192,255,112,2,224,225,48,0,0,0,0
 2023-06-24 15:06:27.189,-56924.46165,33076.84905,5781.837497,28434.79406,22442.80546,-59139.63129,15486.27204,-52001.66875,-0.018,0.092,-0.986,192,0,0,0,0,0,0,0,0,0,0
 2023-06-24 15:06:27.189,-57075.33593,31920.14628,4636.914091,27263.22737,21304.54288,-58420.66508,14352.32334,-51541.80396,-0.018,0.092,-0.986,192,0,0,0,0,0,0,0,0,0,0
 2023-06-24 15:06:27.189,-57362.89112,32431.44243,5170.539638,27696.24772,21843.82341,-59188.00046,14887.5135,-52016.95734,-0.018,0.092,-0.986,192,0,0,0,0,0,0,0,0,0,0
 2023-06-24 15:06:27.189,-57409.47216,33842.77628,6584.220419,29060.79937,23254.3973,-60366.04915,16298.95911,-52763.81853,-0.018,0.092,-0.986,192,0,0,0,0,0,0,0,0,0,0
 2023-06-24 15:06:27.189,-57141.60885,34353.33483,7072.91896,29623.34807,23739.51957,-60381.74008,16799.19115,-52781.23054,-0.018,0.092,-0.986,192,0,0,0,0,0,0,0,0,0,0
 2023-06-24 15:06:27.189,-56912.32466,33136.75173,5828.195015,28508.95715,22505.65857,-59154.33874,15568.68292,-52004.99916,-0.018,0.092,-0.986,192,0,0,0,0,0,0,0,0,0,0
 2023-06-24 15:06:27.189,-57061.25433,31949.67293,4656.538922,27302.83467,21337.5564,-58420.24039,14405.43108,-51535.36666,-0.018,0.092,-0.986,192,0,0,0,0,0,0,0,0,0,0
 2023-06-24 15:06:27.189,-57350.17298,32440.94192,5175.524077,27696.11361,21848.38317,-59173.98592,14916.19079,-52000.97585,-0.018,0.092,-0.986,192,0,0,0,0,0,0,0,0,0,0
 2023-06-24 15:06:27.189,-57399.61504,33848.09599,6589.070748,29052.14924,23258.8006,-60357.55549,16318.0028,-52750.07221,-0.018,0.092,-0.986,192,0,0,0,0,0,0,0,0,0,0
 2023-06-24 15:06:27.189,-57139.15016,34331.29601,7049.203759,29592.9497,23725.46032,-60394.63704,16774.51483,-52783.2422,-0.016,0.096,-0.988,192,255,128,3,0,225,32,0,0,0,0
 2023-06-24 15:06:27.189,-56904.79212,33161.80803,5852.558416,28521.18355,22536.25811,-59172.24248,15578.45063,-52011.59293,-0.016,0.096,-0.988,192,0,0,0,0,0,0,0,0,0,0
 2023-06-24 15:06:27.189,-57053.18535,31950.65641,4657.65651,27303.19229,21344.03841,-58423.05671,14379.77128,-51535.65723,-0.016,0.096,-0.988,192,0,0,0,0,0,0,0,0,0,0
 2023-06-24 15:06:27.189,-57337.47719,32454.46473,5190.410339,27712.98918,21870.31023,-59159.25612,14916.25785,-51990.13525,-0.016,0.096,-0.988,192,0,0,0,0,0,0,0,0,0,0
 2023-06-24 15:06:27.189,-57386.18164,33894.11824,6639.675097,29096.96449,23310.7684,-60342.57982,16350.16696,-52739.03045,-0.016,0.096,-0.988,192,0,0,0,0,0,0,0,0,0,0
 2023-06-24 15:06:27.189,-57130.29887,34357.71577,7080.540905,29613.02157,23753.17648,-60397.65452,16808.35537,-52784.24803,-0.016,0.096,-0.988,192,0,0,0,0,0,0,0,0,0,0
 2023-06-24 15:06:27.189,-56896.25375,33168.35709,5868.539914,28509.76181,22542.24837,-59186.07821,15605.22802,-52020.15364,-0.016,0.096,-0.988,192,0,0,0,0,0,0,0,0,0,0
 2023-06-24 15:06:27.189,-57033.64993,31983.28996,4701.555336,27305.96391,21368.82649,-58416.30649,14419.24446,-51528.41527,-0.016,0.096,-0.988,192,0,0,0,0,0,0,0,0,0,0
 2023-06-24 15:06:27.189,-57319.28287,32487.88059,5229.280022,27729.9765,21896.03709,-59140.05597,14937.49201,-51973.70672,-0.016,0.096,-0.988,192,0,0,0,0,0,0,0,0,0,0
 2023-06-24 15:06:27.189,-57376.36922,33900.39908,6647.565263,29096.47275,23314.18822,-60333.48266,16365.4332,-52727.83223,-0.016,0.096,-0.988,192,0,0,0,0,0,0,0,0,0,0
 2023-06-24 15:06:27.189,-57116.95488,34440.41722,7163.264711,29687.43052,23835.29679,-60399.50972,16888.39697,-52777.74367,-0.016,0.094,-0.992,192,255,128,2,240,225,0,0,0,0,0
 2023-06-24 15:06:27.189,-56880.09344,33251.28207,5943.239444,28599.72758,22623.40756,-59198.46108,15683.95086,-52018.58902,-0.016,0.094,-0.992,192,0,0,0,0,0,0,0,0,0,0
 2023-06-24 15:06:27.189,-57019.32246,31983.96051,4691.027664,27322.23598,21372.26866,-58418.9887,14439.89747,-51520.36864,-0.016,0.094,-0.992,192,0,0,0,0,0,0,0,0,0,0
 2023-06-24 15:06:27.189,-57303.1002,32472.41318,5211.689199,27716.31959,21886.00116,-59128.96951,14944.33164,-51956.29471,-0.016,0.094,-0.992,192,0,0,0,0,0,0,0,0,0,0
 2023-06-24 15:06:27.189,-57358.19725,33909.45153,6657.556493,29104.04999,23323.35244,-60320.83158,16376.3185,-52709.07911,-0.016,0.094,-0.992,192,0,0,0,0,0,0,0,0,0,0
 2023-06-24 15:06:27.189,-57095.60896,34481.47738,7205.822433,29734.72681,23877.63099,-60399.44266,16914.92849,-52765.51727,-0.016,0.094,-0.992,192,0,0,0,0,0,0,0,0,0,0
 2023-06-24 15:06:27.189,-56858.74753,33286.17314,5978.711662,28652.38829,22665.5853,-59209.5699,15694.14326,-52015.21391,-0.016,0.094,-0.992,192,0,0,0,0,0,0,0,0,0,0
 2023-06-24 15:06:27.190,-56996.23311,32015.11884,4720.710781,27368.30293,21407.3609,-58416.93233,14453.84496,-51509.90802,-0.016,0.094,-0.992,192,0,0,0,0,0,0,0,0,0,0
 2023-06-24 15:06:27.190,-57288.90685,32442.97593,5175.546429,27692.44792,21853.74759,-59120.85582,14905.57371,-51943.06248,-0.016,0.094,-0.992,192,0,0,0,0,0,0,0,0,0,0
 2023-06-24 15:06:27.190,-57354.77744,33850.13,6589.897763,29045.71194,23264.76851,-60320.69747,16319.74623,-52699.13259,-0.016,0.094,-0.992,192,0,0,0,0,0,0,0,0,0,0
 2023-06-24 15:06:27.190,-57104.95199,34380.00046,7102.244449,29636.5803,23776.467,-60421.50383,16824.58273,-52769.7641,-0.018,0.092,-0.994,192,255,112,2,224,224,240,0,0,0,0
 2023-06-24 15:06:27.190,-56865.49775,33232.77482,5925.3804,28594.58668,22611.49408,-59236.36964,15654.71478,-52021.45005,-0.018,0.092,-0.994,192,0,0,0,0,0,0,0,0,0,0
 2023-06-24 15:06:27.190,-56995.29433,31974.79629,4674.95676,27334.70825,21367.91007,-58422.47557,14413.03067,-51501.3026,-0.018,0.092,-0.994,192,0,0,0,0,0,0,0,0,0,0
 2023-06-24 15:06:27.190,-57287.29752,32390.98577,5123.422161,27654.20409,21805.35606,-59112.45157,14858.16566,-51924.64464,-0.018,0.092,-0.994,192,0,0,0,0,0,0,0,0,0,0
 2023-06-24 15:06:27.190,-57355.00096,33806.76762,6553.687937,29003.08716,23220.3556,-60315.17658,16284.29637,-52683.30755,-0.018,0.092,-0.994,192,0,0,0,0,0,0,0,0,0,0
 2023-06-24 15:06:27.190,-57101.64393,34387.01891,7112.392141,29633.85339,23775.46117,-60425.79537,16836.02683,-52762.14215,-0.018,0.092,-0.994,192,0,0,0,0,0,0,0,0,0,0
 2023-06-24 15:06:27.190,-56856.42294,33275.06432,5969.949778,28626.28146,22646.11693,-59247.52316,15701.56404,-52020.51127,-0.018,0.092,-0.994,192,0,0,0,0,0,0,0,0,0,0
 2023-06-24 15:06:27.190,-56985.43721,31982.99938,4687.563144,27330.10379,21367.55244,-58424.8225,14421.41258,-51498.12865,-0.018,0.092,-0.994,192,0,0,0,0,0,0,0,0,0,0
 2023-06-24 15:06:27.190,-57279.2956,32362.12967,5096.309495,27615.53557,21769.54857,-59105.45547,14826.53795,-51918.16263,-0.018,0.092,-0.994,192,0,0,0,0,0,0,0,0,0,0
 2023-06-24 15:06:27.190,-57345.09913,33816.33417,6561.242826,29004.76354,23228.02224,-60308.60517,16278.14964,-52674.61272,-0.018,0.092,-0.994,192,0,0,0,0,0,0,0,0,0,0
 2023-06-24 15:06:27.190,-57088.00937,34425.26274,7145.204502,29667.55982,23816.87895,-60431.51741,16858.89266,-52759.10232,-0.018,0.094,-0.99,192,255,112,2,240,225,16,0,0,0,0
 2023-06-24 15:06:27.190,-56844.86709,33286.06138,5976.498839,28630.12596,22657.38221,-59265.941,15704.60388,-52024.55694,-0.018,0.094,-0.99,192,0,0,0,0,0,0,0,0,0,0
 2023-06-24 15:06:27.190,-56967.60052,32000.21023,4705.444539,27335.35645,21387.19963,-58426.7671,14444.65839,-51485.20934,-0.018,0.094,-0.99,192,0,0,0,0,0,0,0,0,0,0
 2023-06-24 15:06:27.190,-57263.98465,32360.25213,5094.208431,27606.14784,21768.051,-59092.89379,14823.47576,-51895.20739,-0.018,0.094,-0.99,192,0,0,0,0,0,0,0,0,0,0
 2023-06-24 15:06:27.190,-57334.05737,33800.39737,6539.874558,28994.66056,23213.62772,-60297.94339,16265.61031,-52655.83726,-0.018,0.094,-0.99,192,0,0,0,0,0,0,0,0,0,0
 2023-06-24 15:06:27.190,-57079.49335,34428.23552,7142.87992,29682.87077,23824.99264,-60436.63596,16878.80807,-52751.14509,-0.018,0.094,-0.99,192,0,0,0,0,0,0,0,0,0,0
 2023-06-24 15:06:27.190,-56833.31124,33313.77754,6003.879726,28672.37075,22688.89817,-59278.97206,15740.1655,-52022.96996,-0.018,0.094,-0.99,192,0,0,0,0,0,0,0,0,0,0
 2023-06-24 15:06:27.190,-56953.72009,31992.74474,4698.873126,27344.8783,21380.56116,-58427.61647,14422.86544,-51479.82257,-0.018,0.094,-0.99,192,0,0,0,0,0,0,0,0,0,0
 2023-06-24 15:06:27.190,-57244.11395,32367.35998,5107.664181,27617.54723,21775.33767,-59076.57702,14825.88975,-51876.96837,-0.018,0.094,-0.99,192,0,0,0,0,0,0,0,0,0,0
 2023-06-24 15:06:27.190,-57317.24886,33806.99114,6556.191332,28999.37677,23220.13208,-60285.2476,16274.70747,-52636.79357,-0.018,0.094,-0.99,192,0,0,0,0,0,0,0,0,0,0
 2023-06-24 15:06:27.190,-57066.97638,34436.88565,7160.962482,29682.13316,23831.76521,-60441.10631,16879.65743,-52742.71849,-0.018,0.096,-0.996,192,255,112,3,0,224,224,0,0,0,0
 2023-06-24 15:06:27.190,-56821.17424,33331.1672,6025.44916,28674.49417,22701.23633,-59294.37241,15755.16352,-52021.40534,-0.018,0.096,-0.996,192,0,0,0,0,0,0,0,0,0,0
 2023-06-24 15:06:27.668,-56933.40235,32041.73977,4746.191769,27383.368,21424.34823,-58426.18596,14475.90613,-51466.14331,-0.018,0.096,-0.996,192,0,0,0,0,0,0,0,0,0,0
 2023-06-24 15:06:27.668,-57223.0139,32408.84482,5133.033411,27662.92127,21816.21901,-59061.13196,14863.7536,-51857.27648,-0.018,0.096,-0.996,192,0,0,0,0,0,0,0,0,0,0
 2023-06-24 15:06:27.668,-57303.25667,33818.77051,6551.9445,29013.816,23227.4858,-60273.17766,16268.42663,-52622.82373,-0.018,0.096,-0.996,192,0,0,0,0,0,0,0,0,0,0
 2023-06-24 15:06:27.668,-57062.1484,34413.17045,7128.753618,29658.59677,23801.79153,-60451.07519,16845.77219,-52745.02072,-0.018,0.096,-0.996,192,0,0,0,0,0,0,0,0,0,0
 2023-06-24 15:06:27.668,-56807.27146,33365.18656,6056.160457,28704.53491,22733.08757,-59307.09056,15782.79028,-52025.87569,-0.018,0.096,-0.996,192,0,0,0,0,0,0,0,0,0,0
 2023-06-24 15:06:27.668,-56914.29161,32060.91756,4765.257807,27393.91802,21439.61447,-58423.70491,14495.62037,-51461.71766,-0.018,0.096,-0.996,192,0,0,0,0,0,0,0,0,0,0
 2023-06-24 15:06:27.668,-57204.08198,32409.62713,5141.415315,27668.53156,21815.61551,-59046.73744,14864.22299,-51842.43492,-0.018,0.096,-0.996,192,0,0,0,0,0,0,0,0,0,0
 2023-06-24 15:06:27.668,-57298.22752,33742.93104,6482.587037,28947.47602,23152.89803,-60271.23305,16202.95837,-52615.93939,-0.018,0.096,-0.996,192,0,0,0,0,0,0,0,0,0,0
 2023-06-24 15:06:27.668,-57059.26502,34382.28034,7099.495184,29623.97392,23771.50491,-60462.51928,16826.99672,-52747.63587,-0.016,0.096,-0.992,192,255,128,3,0,225,0,0,0,0,0
 2023-06-24 15:06:27.668,-56817.03917,33265.56483,5957.16458,28614.77031,22634.40462,-59340.34995,15676.03835,-52044.18177,-0.016,0.096,-0.992,192,0,0,0,0,0,0,0,0,0,0
 2023-06-24 15:06:27.668,-56927.34503,31913.64192,4620.194986,27256.20893,21291.93649,-58445.65433,14337.50413,-51474.30169,-0.016,0.096,-0.992,192,0,0,0,0,0,0,0,0,0,0
 2023-06-24 15:06:27.668,-57211.41335,32301.51174,5034.372811,27556.25874,21706.82957,-59047.38564,14752.12899,-51842.39022,-0.016,0.096,-0.992,192,0,0,0,0,0,0,0,0,0,0
 2023-06-24 15:06:27.668,-57297.73579,33724.06616,6464.213903,28922.86675,23134.70371,-60265.93569,16165.31803,-52608.11628,-0.016,0.096,-0.992,192,0,0,0,0,0,0,0,0,0,0
 2023-06-24 15:06:27.668,-57055.50993,34393.14328,7112.459196,29634.09926,23779.84211,-60471.86231,16803.6615,-52746.45123,-0.016,0.096,-0.992,192,0,0,0,0,0,0,0,0,0,0
 2023-06-24 15:06:27.668,-56800.40947,33342.23131,6036.60268,28672.50486,22701.05752,-59348.68715,15737.50564,-52041.92424,-0.016,0.096,-0.992,192,0,0,0,0,0,0,0,0,0,0
 2023-06-24 15:06:27.668,-56908.50251,31953.1151,4654.504914,27275.722,21321.19493,-58442.52508,14374.36216,-51464.93631,-0.016,0.096,-0.992,192,0,0,0,0,0,0,0,0,0,0
 2023-06-24 15:06:27.668,-57204.41725,32250.16978,4975.699481,27484.06261,21647.21747,-59041.32832,14689.52175,-51833.15895,-0.016,0.096,-0.992,192,0,0,0,0,0,0,0,0,0,0
 2023-06-24 15:06:27.668,-57291.92433,33708.55405,6444.298499,28902.54902,23116.46469,-60257.84436,16139.72528,-52597.47685,-0.016,0.096,-0.992,192,0,0,0,0,0,0,0,0,0,0
 2023-06-24 15:06:27.668,-57049.38555,34427.2744,7141.158836,29664.14001,23811.22396,-60476.69029,16834.66337,-52742.42791,-0.018,0.092,-0.992,192,255,112,2,224,225,0,0,0,0,0
 2023-06-24 15:06:27.668,-56792.00522,33388.54413,6073.393652,28709.47465,22744.4199,-59364.13221,15781.96326,-52044.00296,-0.018,0.092,-0.992,192,0,0,0,0,0,0,0,0,0,0
 2023-06-24 15:06:27.668,-56891.26931,31988.69908,4681.304655,27313.85408,21360.33283,-58440.22285,14413.3883,-51455.07919,-0.018,0.092,-0.992,192,0,0,0,0,0,0,0,0,0,0
 2023-06-24 15:06:27.668,-57184.79242,32246.14647,4964.098926,27499.21709,21643.1718,-59024.72097,14684.44791,-51814.11526,-0.018,0.092,-0.992,192,0,0,0,0,0,0,0,0,0,0
 2023-06-24 15:06:27.668,-57279.09443,33657.3015,6389.84965,28851.98937,23060.29475,-60245.93088,16109.17045,-52580.37777,-0.018,0.092,-0.992,192,0,0,0,0,0,0,0,0,0,0
 2023-06-24 15:06:27.668,-57041.026,34381.02864,7094.667208,29631.05942,23771.95195,-60481.83119,16813.76449,-52734.69421,-0.018,0.092,-0.992,192,0,0,0,0,0,0,0,0,0,0
 2023-06-24 15:06:27.668,-56788.33953,33343.68418,6034.501616,28678.58454,22704.6338,-59383.98056,15747.54158,-52045.2323,-0.018,0.092,-0.992,192,0,0,0,0,0,0,0,0,0,0
 2023-06-24 15:06:27.668,-56876.94185,32013.9342,4711.010124,27348.7228,21382.68457,-58440.69224,14433.39311,-51441.98107,-0.018,0.092,-0.992,192,0,0,0,0,0,0,0,0,0,0
 2023-06-24 15:06:27.668,-57174.01888,32257.4341,4981.510935,27505.20736,21653.00657,-59011.28757,14707.4255,-51790.42241,-0.018,0.092,-0.992,192,0,0,0,0,0,0,0,0,0,0
 2023-06-24 15:06:27.668,-57275.36169,33661.34717,6398.164499,28838.93595,23060.49592,-60235.29145,16108.00816,-52557.48958,-0.018,0.092,-0.992,192,0,0,0,0,0,0,0,0,0,0
 2023-06-24 15:06:27.668,-57037.04739,34401.59224,7113.107397,29622.56576,23778.38925,-60485.47453,16833.97047,-52720.4338,-0.02,0.092,-0.988,192,255,96,2,224,225,32,0,0,0,0
 2023-06-24 15:06:27.668,-56778.70593,33392.96977,6074.555942,28714.34733,22746.54332,-59396.54224,15795.06139,-52036.96216,-0.02,0.092,-0.988,192,0,0,0,0,0,0,0,0,0,0
 2023-06-24 15:06:27.669,-56868.42583,32016.61641,4709.020818,27345.14652,21378.75067,-58445.00613,14432.54375,-51429.28528,-0.02,0.092,-0.988,192,0,0,0,0,0,0,0,0,0,0
 2023-06-24 15:06:27.669,-57154.48346,32315.6604,5037.971442,27559.99149,21705.1979,-58992.44505,14754.52063,-51762.19216,-0.02,0.092,-0.988,192,0,0,0,0,0,0,0,0,0,0
 2023-06-24 15:06:27.669,-57263.87289,33691.2091,6428.093484,28872.37416,23090.78253,-60218.6394,16144.68737,-52531.22628,-0.02,0.092,-0.988,192,0,0,0,0,0,0,0,0,0,0
 2023-06-24 15:06:27.669,-57032.13001,34421.53,7137.716667,29647.59971,23801.36684,-60487.28502,16852.96945,-52707.49214,-0.02,0.092,-0.988,192,0,0,0,0,0,0,0,0,0,0
 2023-06-24 15:06:27.669,-56772.98388,33414.65097,6099.612248,28737.77196,22766.81635,-59410.80265,15827.2926,-52032.84943,-0.02,0.092,-0.988,192,0,0,0,0,0,0,0,0,0,0
 2023-06-24 15:06:27.669,-56854.67951,32045.07018,4738.323955,27368.97348,21408.18791,-58442.27921,14477.78368,-51414.8684,-0.02,0.092,-0.988,192,0,0,0,0,0,0,0,0,0,0
 2023-06-24 15:06:27.669,-57143.50875,32282.15513,5003.683866,27520.63006,21667.11052,-58975.81535,14725.01632,-51743.75197,-0.02,0.092,-0.988,192,0,0,0,0,0,0,0,0,0,0
 2023-06-24 15:06:27.669,-57251.7359,33669.34909,6405.540574,28844.76976,23056.62907,-60198.88046,16121.26274,-52513.34489,-0.02,0.092,-0.988,192,0,0,0,0,0,0,0,0,0,0
 2023-06-24 15:06:27.669,-57024.3069,34410.06355,7128.597156,29621.60464,23773.44951,-60485.2063,16832.09292,-52700.87602,-0.02,0.096,-0.986,192,255,96,3,0,225,48,0,0,0,0
 2023-06-24 15:06:27.669,-56768.37942,33415.54504,6103.903783,28735.00034,22761.56369,-59424.16899,15818.9107,-52034.97285,-0.02,0.096,-0.986,192,0,0,0,0,0,0,0,0,0,0
 2023-06-24 15:06:27.669,-56845.78351,32066.90783,4764.00611,27396.24261,21430.4726,-58444.76026,14489.65245,-51405.59243,-0.02,0.096,-0.986,192,0,0,0,0,0,0,0,0,0,0
 2023-06-24 15:06:27.669,-57129.51656,32315.21336,5043.626433,27558.94095,21703.96855,-58965.26533,14763.37192,-51721.40023,-0.02,0.096,-0.986,192,0,0,0,0,0,0,0,0,0,0
 2023-06-24 15:06:27.669,-57239.26362,33692.19258,6433.748476,28875.12343,23089.37437,-60191.25851,16135.52316,-52489.47322,-0.02,0.096,-0.986,192,0,0,0,0,0,0,0,0,0,0
 2023-06-24 15:06:27.669,-57010.89585,34459.21504,7181.816659,29680.61324,23831.34053,-60494.23641,16884.37365,-52687.39792,-0.02,0.096,-0.986,192,0,0,0,0,0,0,0,0,0,0
 2023-06-24 15:06:27.669,-56752.59909,33450.2573,6139.86774,28782.14017,22804.72491,-59445.24669,15862.27308,-52029.8096,-0.02,0.096,-0.986,192,0,0,0,0,0,0,0,0,0,0
 2023-06-24 15:06:27.669,-56827.29862,32047.19359,4743.911891,27385.73729,21414.58051,-58454.3268,14470.9664,-51393.56719,-0.02,0.096,-0.986,192,0,0,0,0,0,0,0,0,0,0
 2023-06-24 15:06:27.669,-57106.20369,32318.63318,5047.202712,27562.42783,21710.00352,-58954.55884,14762.96958,-51695.91924,-0.02,0.096,-0.986,192,0,0,0,0,0,0,0,0,0,0
 2023-06-24 15:06:27.669,-57218.61061,33713.42673,6455.787296,28888.8921,23111.5473,-60176.37225,16178.32675,-52462.47232,-0.02,0.096,-0.986,192,0,0,0,0,0,0,0,0,0,0
 2023-06-24 15:06:27.669,-56992.38861,34509.05943,7230.230538,29735.35266,23885.85644,-60490.45896,16950.75833,-52668.17542,-0.018,0.094,-0.984,192,255,112,2,240,225,64,0,0,0,0
 2023-06-24 15:06:27.669,-56725.8664,33575.62823,6265.529247,28907.53346,22929.89468,-59446.38663,15989.85684,-52014.23043,-0.018,0.094,-0.984,192,0,0,0,0,0,0,0,0,0,0
 2023-06-24 15:06:27.669,-56807.29381,32083.2246,4778.691206,27423.60114,21449.0022,-58451.48813,14513.9488,-51379.73146,-0.018,0.094,-0.984,192,0,0,0,0,0,0,0,0,0,0
 2023-06-24 15:06:27.669,-57092.36796,32290.24646,5016.893746,27538.31029,21677.57114,-58943.76295,14737.64506,-51680.49654,-0.018,0.094,-0.984,192,0,0,0,0,0,0,0,0,0,0
 2023-06-24 15:06:27.669,-57204.14903,33700.35096,6441.996269,28877.06803,23091.83307,-60163.40824,16152.1305,-52443.45098,-0.018,0.094,-0.984,192,0,0,0,0,0,0,0,0,0,0
 2023-06-24 15:06:27.669,-56989.28171,34433.44348,7157.9897,29657.03215,23810.97809,-60506.03813,16874.31537,-52666.11906,-0.018,0.094,-0.984,192,0,0,0,0,0,0,0,0,0,0
 2023-06-24 15:06:27.669,-56713.72941,33562.17248,6257.37086,28887.32748,22923.01034,-59467.8443,15977.2281,-52015.28096,-0.018,0.094,-0.984,192,0,0,0,0,0,0,0,0,0,0
 2023-06-24 15:06:27.669,-56775.12965,32167.64714,4864.20898,27500.69231,21533.73766,-58446.66015,14586.97195,-51363.19117,-0.018,0.094,-0.984,192,0,0,0,0,0,0,0,0,0,0
 2023-06-24 15:06:27.669,-57067.73634,32282.98214,5007.215441,27535.42692,21670.82091,-58931.35773,14721.03771,-51663.28569,-0.018,0.094,-0.984,192,0,0,0,0,0,0,0,0,0,0
 2023-06-24 15:06:27.669,-57202.15973,33560.4961,6299.660361,28744.52218,22960.09188,-60164.52583,16018.40002,-52439.42767,-0.018,0.094,-0.984,192,0,0,0,0,0,0,0,0,0,0
 2023-06-24 15:06:27.669,-56991.42748,34343.54476,7065.453478,29569.32391,23727.62844,-60520.07503,16776.95117,-52668.42129,-0.018,0.098,-0.986,192,255,112,3,16,225,48,0,0,0,0
 2023-06-24 15:06:27.669,-56715.24933,33498.60412,6193.288409,28822.10509,22855.01633,-59494.55464,15902.05919,-52024.44518,-0.018,0.098,-0.986,192,0,0,0,0,0,0,0,0,0,0
 2023-06-24 15:06:27.669,-56776.51546,32054.70378,4750.259787,27398.79071,21416.74863,-58463.08869,14466.16077,-51366.23101,-0.018,0.098,-0.986,192,0,0,0,0,0,0,0,0,0,0
 2023-06-24 15:06:27.669,-57058.46036,32238.83745,4961.170848,27502.43574,21628.53141,-58924.04871,14674.1214,-51645.71722,-0.018,0.098,-0.986,192,0,0,0,0,0,0,0,0,0,0
 2023-06-24 15:06:27.669,-57178.86921,33621.13638,6355.830295,28819.0876,23021.53683,-60144.49866,16075.35226,-52408.60461,-0.018,0.098,-0.986,192,0,0,0,0,0,0,0,0,0,0
 2023-06-24 15:06:27.669,-56962.01258,34458.65625,7175.379357,29686.55881,23835.16268,-60510.10615,16893.91785,-52642.85089,-0.018,0.098,-0.986,192,0,0,0,0,0,0,0,0,0,0
 2023-06-24 15:06:27.669,-56686.7285,33598.42701,6284.505878,28926.24187,22953.34166,-59501.61779,16015.00255,-52011.54822,-0.018,0.098,-0.986,192,0,0,0,0,0,0,0,0,0,0
 2023-06-24 15:06:27.669,-56749.00046,32114.33823,4803.144014,27457.15111,21476.47249,-58461.83699,14536.70288,-51347.92493,-0.018,0.098,-0.986,192,0,0,0,0,0,0,0,0,0,0
 2023-06-24 15:06:27.669,-57033.76168,32259.26694,4978.582856,27511.73407,21647.10571,-58909.45302,14712.78992,-51621.26441,-0.018,0.098,-0.986,192,0,0,0,0,0,0,0,0,0,0
 2023-06-24 15:06:27.669,-57164.63115,33587.18408,6323.710838,28784.57651,22991.38433,-60134.90977,16046.83143,-52391.39377,-0.018,0.098,-0.986,192,0,0,0,0,0,0,0,0,0,0
 2023-06-24 15:06:27.669,-56956.64817,34387.22007,7111.922754,29613.73682,23770.65555,-60518.93509,16830.84122,-52639.45343,-0.008,0.094,-0.988,192,255,192,2,240,225,32,0,0,0,0
 2023-06-24 15:06:27.669,-56676.31259,33577.1705,6276.615712,28889.40619,22931.39224,-59518.09103,16006.17361,-52012.26348,-0.008,0.094,-0.988,192,0,0,0,0,0,0,0,0,0,0
 2023-06-24 15:06:27.669,-56731.23082,32124.79885,4827.552119,27469.82455,21496.14203,-58461.25584,14565.13429,-51338.93953,-0.008,0.094,-0.988,192,0,0,0,0,0,0,0,0,0,0
 2023-06-24 15:06:27.669,-57025.08921,32193.10578,4923.15053,27460.68269,21587.15833,-58900.22175,14645.80174,-51610.8932,-0.008,0.094,-0.988,192,0,0,0,0,0,0,0,0,0,0
 2023-06-24 15:06:27.669,-57161.54661,33526.92378,6275.94516,28721.85751,22923.21151,-60125.61144,15972.31072,-52382.40837,-0.008,0.094,-0.988,192,0,0,0,0,0,0,0,0,0,0
 2023-06-24 15:06:27.669,-56957.18461,34356.59818,7085.301827,29582.35497,23730.64592,-60523.62895,16784.77428,-52639.47578,-0.008,0.094,-0.988,192,0,0,0,0,0,0,0,0,0,0
 2023-06-24 15:06:27.669,-56674.03271,33584.34541,6281.130765,28899.95621,22939.81885,-59536.75473,16006.0395,-52019.97483,-0.008,0.094,-0.988,192,0,0,0,0,0,0,0,0,0,0
 2023-06-24 15:06:27.669,-56722.6701,32137.49464,4837.006907,27478.98876,21501.77467,-58468.94484,14556.48417,-51336.72671,-0.008,0.094,-0.988,192,0,0,0,0,0,0,0,0,0,0
 2023-06-24 15:06:27.669,-57008.9289,32241.22909,4970.93856,27498.99358,21627.41382,-58887.72713,14685.74431,-51589.18966,-0.008,0.094,-0.988,192,0,0,0,0,0,0,0,0,0,0
 2023-06-24 15:06:27.669,-57147.80028,33549.83432,6296.173489,28739.22482,22946.92671,-60114.05559,16002.39617,-52358.11202,-0.008,0.094,-0.988,192,0,0,0,0,0,0,0,0,0,0
 2023-06-24 15:06:27.670,-56948.57919,34365.06949,7093.571972,29587.58528,23742.67116,-60529.46276,16798.78882,-52627.38349,-0.012,0.09,-0.992,192,255,160,2,208,225,0,0,0,0,0
 2023-06-24 15:06:27.670,-56674.77032,33530.54476,6230.951098,28849.91066,22883.17953,-59561.60987,15934.20099,-52025.71923,-0.012,0.09,-0.992,192,0,0,0,0,0,0,0,0,0,0
 2023-06-24 15:06:27.670,-56727.81101,32014.82827,4718.766179,27346.93466,21375.71083,-58488.39086,14438.66812,-51342.94049,-0.012,0.09,-0.992,192,0,0,0,0,0,0,0,0,0,0
 2023-06-24 15:06:27.670,-57014.98622,32098.80377,4825.607517,27341.32437,21482.44041,-58895.32672,14546.91762,-51591.04485,-0.012,0.09,-0.992,192,0,0,0,0,0,0,0,0,0,0
 2023-06-24 15:06:27.670,-57158.39501,33413.55573,6156.497438,28594.27376,22812.3245,-60122.37044,15875.12533,-52360.34719,-0.012,0.09,-0.992,192,0,0,0,0,0,0,0,0,0,0
 2023-06-24 15:06:27.670,-56948.42272,34365.00244,7091.761481,29579.58336,23746.33685,-60541.68916,16799.97346,-52627.91993,-0.012,0.09,-0.992,192,0,0,0,0,0,0,0,0,0,0
 2023-06-24 15:06:27.670,-56661.26986,33612.91094,6309.092797,28922.17385,22966.43978,-59578.70896,16011.091,-52025.22749,-0.012,0.09,-0.992,192,0,0,0,0,0,0,0,0,0,0
 2023-06-24 15:06:27.670,-56704.67695,32100.63661,4801.691151,27422.21533,21455.9983,-58487.38503,14512.40653,-51326.89194,-0.012,0.09,-0.992,192,0,0,0,0,0,0,0,0,0,0
 2023-06-24 15:06:27.670,-56989.92991,32170.2623,4902.206946,27406.90439,21553.96599,-58877.44533,14604.02633,-51562.36757,-0.012,0.09,-0.992,192,0,0,0,0,0,0,0,0,0,0
 2023-06-24 15:06:27.670,-57129.38245,33526.14147,6276.749823,28690.76624,22916.7295,-60098.72229,15954.65284,-52326.64076,-0.012,0.09,-0.992,192,0,0,0,0,0,0,0,0,0,0
 2023-06-24 15:06:27.670,-56926.85329,34451.36958,7185.03531,29649.11963,23822.28807,-60535.1401,16868.25804,-52605.81405,-0.012,0.09,-0.992,192,0,0,0,0,0,0,0,0,0,0
 2023-06-24 15:06:27.670,-56646.78593,33667.65036,6366.805001,28969.20192,23015.3454,-59592.52233,16065.51749,-52017.40438,-0.016,0.096,-0.992,192,255,128,3,0,225,0,0,0,0,0
 2023-06-24 15:06:27.670,-56687.17553,32147.70939,4847.176951,27479.83813,21505.28389,-58490.42487,14562.31797,-51315.31373,-0.016,0.096,-0.992,192,0,0,0,0,0,0,0,0,0,0
 2023-06-24 15:06:27.670,-56976.54122,32167.91536,4895.948457,27407.17261,21546.47816,-58868.43757,14617.03505,-51546.25196,-0.016,0.096,-0.992,192,0,0,0,0,0,0,0,0,0,0
 2023-06-24 15:06:27.670,-57123.52629,33469.94918,6215.170767,28639.53604,22860.42546,-60091.99442,15924.96972,-52312.67092,-0.016,0.096,-0.992,192,0,0,0,0,0,0,0,0,0,0
 2023-06-24 15:06:27.670,-56923.92521,34403.69331,7133.402781,29603.63383,23778.29984,-60542.7844,16836.71973,-52600.82961,-0.016,0.096,-0.992,192,0,0,0,0,0,0,0,0,0,0
 2023-06-24 15:06:27.670,-56634.49247,33694.69597,6393.358874,28997.63334,23045.69907,-59607.34154,16097.45814,-52016.68912,-0.016,0.096,-0.992,192,0,0,0,0,0,0,0,0,0,0
 2023-06-24 15:06:27.670,-56667.90833,32171.67046,4868.120535,27500.98288,21522.56179,-58494.89522,14572.35391,-51306.88713,-0.016,0.096,-0.992,192,0,0,0,0,0,0,0,0,0,0
 2023-06-24 15:06:27.670,-56959.48684,32152.87264,4881.88921,27397.53901,21527.34506,-58860.07802,14589.40829,-51530.51633,-0.016,0.096,-0.992,192,0,0,0,0,0,0,0,0,0,0
 2023-06-24 15:06:27.670,-57109.95878,33453.81122,6202.966714,28631.3106,22842.32054,-60082.29376,15901.88037,-52296.64472,-0.016,0.096,-0.992,192,0,0,0,0,0,0,0,0,0,0
 2023-06-24 15:06:27.670,-56914.04574,34407.85073,7140.912967,29615.86024,23786.99467,-60547.2771,16844.31933,-52593.81117,-0.016,0.096,-0.992,192,0,0,0,0,0,0,0,0,0,0
 2023-06-24 15:06:27.670,-56629.17276,33689.9574,6394.34235,28987.39624,23041.58634,-59631.70494,16098.75454,-52022.72409,-0.016,0.096,-0.988,192,255,128,3,0,225,32,0,0,0,0
 2023-06-24 15:06:27.670,-56646.85299,32231.70724,4935.734562,27558.31511,21584.43142,-58495.20814,14646.47229,-51296.04653,-0.016,0.096,-0.988,192,0,0,0,0,0,0,0,0,0,0
 2023-06-24 15:06:27.670,-56941.53839,32161.94745,4891.947495,27414.32517,21536.95631,-58844.56591,14600.33829,-51512.07614,-0.016,0.096,-0.988,192,0,0,0,0,0,0,0,0,0,0
 2023-06-24 15:06:27.670,-57098.96172,33424.30692,6170.199057,28603.05799,22811.0728,-60070.55909,15874.45478,-52281.82552,-0.016,0.096,-0.988,192,0,0,0,0,0,0,0,0,0,0
 2023-06-24 15:06:27.670,-56908.39075,34368.66812,7096.991789,29568.20632,23737.03852,-60554.11673,16800.10757,-52591.44188,-0.016,0.096,-0.988,192,0,0,0,0,0,0,0,0,0,0
 2023-06-24 15:06:27.670,-56622.95897,33672.43364,6370.873019,28960.99883,23014.16075,-59650.86039,16088.0257,-52028.84847,-0.016,0.096,-0.988,192,0,0,0,0,0,0,0,0,0,0
 2023-06-24 15:06:27.670,-56645.44483,32163.80264,4862.577303,27476.61948,21506.28972,-58511.14494,14581.02638,-51300.49453,-0.016,0.096,-0.988,192,0,0,0,0,0,0,0,0,0,0
 2023-06-24 15:06:27.670,-56933.17883,32132.33139,4857.436402,27372.92974,21504.30042,-58839.17914,14576.44428,-51498.53098,-0.016,0.096,-0.988,192,0,0,0,0,0,0,0,0,0,0
 2023-06-24 15:06:27.670,-57090.80334,33427.21265,6171.115478,28598.36413,22814.55968,-60061.73015,15872.28666,-52263.34062,-0.016,0.096,-0.988,192,0,0,0,0,0,0,0,0,0,0
 2023-06-24 15:06:27.670,-56899.18183,34418.60192,7146.120923,29617.62603,23790.07921,-60553.98262,16836.69738,-52576.26505,-0.016,0.096,-0.988,192,0,0,0,0,0,0,0,0,0,0
 2023-06-24 15:06:27.670,-56608.20682,33757.50437,6454.759116,29050.9646,23107.41223,-59658.19176,16161.49588,-52018.43256,-0.02,0.098,-0.986,192,255,96,3,16,225,48,0,0,0,0
 2023-06-24 15:06:27.670,-56622.19901,32241.92199,4935.309879,27571.86026,21599.16122,-58509.15563,14649.46743,-51285.80943,-0.02,0.098,-0.986,192,0,0,0,0,0,0,0,0,0,0
 2023-06-24 15:06:27.670,-56909.84361,32171.49164,4895.233201,27418.25907,21552.58018,-58822.99648,14603.0652,-51476.60392,-0.02,0.098,-0.986,192,0,0,0,0,0,0,0,0,0,0
 2023-06-24 15:06:27.670,-57066.95402,33470.8209,6210.85688,28644.31931,22865.67812,-60040.40659,15916.05138,-52238.35137,-0.02,0.098,-0.986,192,0,0,0,0,0,0,0,0,0,0
 2023-06-24 15:06:27.670,-56889.50353,34389.5223,7113.286211,29599.07408,23777.13755,-60558.94471,16814.92678,-52570.94533,-0.02,0.098,-0.986,192,0,0,0,0,0,0,0,0,0,0
 2023-06-24 15:06:27.670,-56604.49643,33710.76688,6410.145034,29017.50404,23075.89627,-59684.56682,16112.88084,-52026.97093,-0.02,0.098,-0.986,192,0,0,0,0,0,0,0,0,0,0
 2023-06-24 15:06:27.670,-56616.09699,32184.47801,4885.443137,27522.61937,21551.06027,-58527.2829,14596.71731,-51286.6588,-0.02,0.098,-0.986,192,0,0,0,0,0,0,0,0,0,0
 2023-06-24 15:06:27.670,-56899.24889,32118.02627,4849.412125,27379.59056,21514.60457,-58820.44838,14558.98756,-51463.86343,-0.02,0.098,-0.986,192,0,0,0,0,0,0,0,0,0,0
 2023-06-24 15:06:27.670,-57061.79077,33379.53638,6126.836673,28565.93175,22784.22836,-60038.68551,15827.62788,-52227.26491,-0.02,0.098,-0.986,192,0,0,0,0,0,0,0,0,0,0
 2023-06-24 15:06:27.670,-56876.11483,34378.41348,7107.00537,29589.82046,23763.57004,-60564.48794,16809.31649,-52561.64701,-0.02,0.098,-0.986,192,0,0,0,0,0,0,0,0,0,0
 2023-06-24 15:06:27.670,-56589.47606,33710.65512,6410.234441,29017.03465,23075.89627,-59703.49875,16122.73796,-52027.17209,-0.022,0.096,-0.988,192,255,80,3,0,225,32,0,0,0,0
 2023-06-24 15:06:27.670,-56598.12618,32170.79874,4867.293521,27515.01978,21543.84065,-58536.9612,14591.73287,-51283.93189,-0.022,0.096,-0.988,192,0,0,0,0,0,0,0,0,0,0
 2023-06-24 15:06:28.149,-56877.12066,32122.58603,4847.959262,27392.46516,21519.38784,-58808.93723,14573.29268,-51447.72547,-0.022,0.096,-0.988,192,0,0,0,0,0,0,0,0,0,0
 2023-06-24 15:06:28.149,-57042.25535,33397.01544,6143.041687,28594.162,22809.28466,-60022.05581,15862.5413,-52207.43891,-0.022,0.096,-0.988,192,0,0,0,0,0,0,0,0,0,0
 2023-06-24 15:06:28.149,-56860.73683,34397.41247,7129.200653,29609.75821,23790.03451,-60563.19154,16851.13661,-52553.95801,-0.022,0.096,-0.988,192,0,0,0,0,0,0,0,0,0,0
 2023-06-24 15:06:28.149,-56572.7346,33747.91548,6445.997232,29054.09384,23115.54827,-59715.94867,16174.97399,-52027.70853,-0.022,0.096,-0.988,192,0,0,0,0,0,0,0,0,0,0
 2023-06-24 15:06:28.149,-56566.45376,32249.61099,4944.831722,27591.35098,21616.46147,-58535.12836,14677.60827,-51272.35368,-0.022,0.096,-0.988,192,0,0,0,0,0,0,0,0,0,0
 2023-06-24 15:06:28.149,-56844.93415,32169.59175,4893.512117,27440.9461,21566.66178,-58796.66612,14629.30615,-51428.2571,-0.022,0.096,-0.988,192,0,0,0,0,0,0,0,0,0,0
 2023-06-24 15:06:28.149,-57021.98231,33372.51793,6117.96303,28568.18927,22782.64138,-60017.87603,15834.71338,-52192.32913,-0.022,0.096,-0.988,192,0,0,0,0,0,0,0,0,0,0
 2023-06-24 15:06:28.149,-56848.28691,34364.75657,7097.930562,29575.44828,23752.61769,-60577.09433,16798.5653,-52549.95704,-0.022,0.096,-0.988,192,0,0,0,0,0,0,0,0,0,0
 2023-06-24 15:06:28.149,-56556.57429,33759.8066,6463.208075,29057.9607,23118.90103,-59737.02636,16167.88848,-52028.35673,-0.022,0.09,-0.986,192,255,80,2,208,225,48,0,0,0,0
 2023-06-24 15:06:28.149,-56549.22057,32250.3933,4952.36426,27581.69503,21609.59948,-58547.42182,14673.76377,-51268.93386,-0.022,0.09,-0.986,192,0,0,0,0,0,0,0,0,0,0
 2023-06-24 15:06:28.149,-56832.73009,32117.06515,4848.339242,27373.80145,21505.01567,-58794.52035,14566.27423,-51418.60115,-0.022,0.09,-0.986,192,0,0,0,0,0,0,0,0,0,0
 2023-06-24 15:06:28.149,-56998.89296,33411.96876,6160.967786,28596.88891,22819.07473,-59998.98881,15867.034,-52169.84328,-0.022,0.09,-0.986,192,0,0,0,0,0,0,0,0,0,0
 2023-06-24 15:06:28.149,-56829.73496,34392.49508,7125.57967,29605.22081,23785.18418,-60573.47334,16829.09779,-52536.74716,-0.022,0.09,-0.986,192,0,0,0,0,0,0,0,0,0,0
 2023-06-24 15:06:28.149,-56540.23517,33784.1253,6486.699758,29086.57093,23149.38881,-59749.25277,16203.62892,-52023.84168,-0.022,0.09,-0.986,192,0,0,0,0,0,0,0,0,0,0
 2023-06-24 15:06:28.150,-56532.79204,32247.04054,4946.888083,27588.35585,21617.55671,-58556.27311,14682.99504,-51262.3848,-0.022,0.09,-0.986,192,0,0,0,0,0,0,0,0,0,0
 2023-06-24 15:06:28.150,-56820.07901,32077.25669,4803.72516,27339.67034,21475.2208,-58793.78275,14537.88752,-51407.15705,-0.022,0.09,-0.986,192,0,0,0,0,0,0,0,0,0,0
 2023-06-24 15:06:28.150,-56994.35556,33338.05154,6083.474288,28524.80454,22748.04088,-59998.31825,15805.94668,-52159.98616,-0.022,0.09,-0.986,192,0,0,0,0,0,0,0,0,0,0
 2023-06-24 15:06:28.150,-56822.5377,34379.2405,7107.944144,29595.90013,23774.90238,-60579.46361,16823.15222,-52532.32152,-0.022,0.09,-0.986,192,0,0,0,0,0,0,0,0,0,0
 2023-06-24 15:06:28.150,-56533.44024,33800.93381,6497.920334,29105.34639,23170.13123,-59766.48596,16221.35386,-52028.73671,-0.02,0.092,-0.988,192,255,96,2,224,225,32,0,0,0,0
 2023-06-24 15:06:28.150,-56523.89604,32232.17663,4922.591737,27572.68728,21600.45762,-58568.52187,14651.85906,-51264.99996,-0.02,0.092,-0.988,192,0,0,0,0,0,0,0,0,0,0
 2023-06-24 15:06:28.150,-56806.98088,32053.6756,4773.974988,27313.69761,21446.65527,-58788.016,14494.52513,-51398.03754,-0.02,0.092,-0.988,192,0,0,0,0,0,0,0,0,0,0
 2023-06-24 15:06:28.150,-56979.73752,33342.83481,6084.77069,28518.59075,22748.51027,-59982.94025,15800.13523,-52143.8929,-0.02,0.092,-0.988,192,0,0,0,0,0,0,0,0,0,0
 2023-06-24 15:06:28.150,-56811.96532,34394.73026,7118.471815,29588.54641,23782.34551,-60580.69296,16842.91117,-52526.33125,-0.02,0.092,-0.988,192,0,0,0,0,0,0,0,0,0,0
 2023-06-24 15:06:28.150,-56523.3596,33826.3701,6521.993163,29106.7322,23186.64917,-59786.08844,16253.9874,-52035.28578,-0.02,0.092,-0.988,192,0,0,0,0,0,0,0,0,0,0
 2023-06-24 15:06:28.150,-56507.46751,32287.89953,4980.326293,27603.30917,21646.09988,-58578.20017,14717.68495,-51265.08936,-0.02,0.092,-0.988,192,0,0,0,0,0,0,0,0,0,0
 2023-06-24 15:06:28.150,-56776.04607,32175.67142,4894.003855,27423.86936,21561.6997,-58769.03936,14621.41599,-51377.16101,-0.02,0.092,-0.988,192,0,0,0,0,0,0,0,0,0,0
 2023-06-24 15:06:28.150,-56959.5986,33375.53541,6108.932925,28559.27093,22780.58502,-59964.23184,15823.00107,-52125.58682,-0.02,0.092,-0.988,192,0,0,0,0,0,0,0,0,0,0
 2023-06-24 15:06:28.150,-56797.43669,34414.06452,7137.202577,29609.51234,23798.327,-60578.94952,16832.60701,-52521.03389,-0.02,0.092,-0.988,192,0,0,0,0,0,0,0,0,0,0
 2023-06-24 15:06:28.150,-56503.46655,33895.59345,6593.183469,29171.17228,23250.79867,-59793.8445,16286.30802,-52035.15166,-0.024,0.092,-0.988,192,255,64,2,224,225,32,0,0,0,0
 2023-06-24 15:06:28.150,-56484.69108,32338.48153,5031.198863,27659.27793,21695.07255,-58581.39647,14732.79473,-51263.6365,-0.024,0.092,-0.988,192,0,0,0,0,0,0,0,0,0,0
 2023-06-24 15:06:28.150,-56755.25895,32177.43721,4900.284696,27424.58462,21562.07968,-58757.72938,14602.70758,-51370.20962,-0.024,0.092,-0.988,192,0,0,0,0,0,0,0,0,0,0
 2023-06-24 15:06:28.150,-56947.70747,33345.91935,6084.502469,28519.57423,22745.42573,-59953.43595,15792.13331,-52119.14952,-0.024,0.092,-0.988,192,0,0,0,0,0,0,0,0,0,0
 2023-06-24 15:06:28.150,-56788.04896,34423.4299,7146.702069,29610.317,23809.59228,-60582.88343,16856.7916,-52520.94448,-0.024,0.092,-0.988,192,0,0,0,0,0,0,0,0,0,0
 2023-06-24 15:06:28.150,-56491.64247,33936.25128,6629.817978,29215.92047,23296.01625,-59811.1671,16347.84238,-52042.48304,-0.024,0.092,-0.988,192,0,0,0,0,0,0,0,0,0,0
 2023-06-24 15:06:28.150,-56476.35388,32317.02385,5005.784929,27647.45386,21675.38067,-58599.1214,14722.95996,-51270.92317,-0.024,0.092,-0.988,192,0,0,0,0,0,0,0,0,0,0
 2023-06-24 15:06:28.150,-56749.20163,32117.66864,4836.850445,27365.71012,21496.03027,-58762.37855,14544.61539,-51368.19796,-0.024,0.092,-0.988,192,0,0,0,0,0,0,0,0,0,0
 2023-06-24 15:06:28.150,-56935.21284,33322.71824,6063.715346,28484.12436,22712.3228,-59943.15415,15765.69119,-52107.07958,-0.024,0.092,-0.988,192,0,0,0,0,0,0,0,0,0,0
 2023-06-24 15:06:28.150,-56780.47172,34386.326,7114.359094,29550.52609,23762.07248,-60587.59965,16824.091,-52519.69278,-0.024,0.092,-0.988,192,0,0,0,0,0,0,0,0,0,0
 2023-06-24 15:06:28.150,-56483.90877,33915.10652,6612.003638,29177.05079,23266.91428,-59830.27784,16324.17188,-52051.40138,-0.022,0.094,-0.992,192,255,80,2,240,225,0,0,0,0,0
 2023-06-24 15:06:28.150,-56456.81846,32356.02765,5046.353346,27681.27205,21714.04919,-58606.8104,14769.04926,-51270.722,-0.022,0.094,-0.992,192,0,0,0,0,0,0,0,0,0,0
 2023-06-24 15:06:28.150,-56723.67593,32165.36727,4885.376082,27417.85674,21548.71333,-58753.23668,14601.90291,-51356.75387,-0.022,0.094,-0.992,192,0,0,0,0,0,0,0,0,0,0
 2023-06-24 15:06:28.150,-56914.62689,33332.4636,6073.907742,28503.61508,22726.33734,-59933.78877,15774.02839,-52094.13792,-0.022,0.094,-0.992,192,0,0,0,0,0,0,0,0,0,0
 2023-06-24 15:06:28.150,-56766.27836,34382.4368,7110.134615,29564.8312,23755.52341,-60592.31586,16806.00844,-52513.5684,-0.022,0.094,-0.992,192,0,0,0,0,0,0,0,0,0,0
 2023-06-24 15:06:28.150,-56473.29169,33906.54581,6603.331161,29186.21501,23257.28068,-59852.22725,16308.65977,-52054.66474,-0.022,0.094,-0.992,192,0,0,0,0,0,0,0,0,0,0
 2023-06-24 15:06:28.150,-56450.64937,32304.90921,4998.319447,27629.70658,21651.08432,-58626.23407,14701.94932,-51273.73949,-0.022,0.094,-0.992,192,0,0,0,0,0,0,0,0,0,0
 2023-06-24 15:06:28.150,-56724.16767,32059.53176,4780.680511,27314.8599,21437.91573,-58760.14337,14486.12088,-51353.93755,-0.022,0.094,-0.992,192,0,0,0,0,0,0,0,0,0,0
 2023-06-24 15:06:28.150,-56912.79404,33281.54633,6026.611451,28456.94464,22679.1081,-59925.49627,15729.43666,-52081.0845,-0.022,0.094,-0.992,192,0,0,0,0,0,0,0,0,0,0
 2023-06-24 15:06:28.150,-56760.82453,34399.37942,7131.279365,29585.64068,23779.708,-60591.01946,16824.64979,-52504.98533,-0.022,0.094,-0.992,192,0,0,0,0,0,0,0,0,0,0
 2023-06-24 15:06:28.150,-56470.60948,33918.34753,6617.345705,29197.59204,23269.52943,-59868.49932,16317.73458,-52059.3586,-0.02,0.094,-0.994,192,255,96,2,240,224,240,0,0,0,0
 2023-06-24 15:06:28.150,-56443.56387,32305.468,4999.615848,27634.15457,21659.01919,-58638.03579,14720.72479,-51276.93579,-0.02,0.094,-0.994,192,0,0,0,0,0,0,0,0,0,0
 2023-06-24 15:06:28.150,-56715.87517,32033.42492,4755.981833,27285.64617,21413.61939,-58756.50004,14469.31237,-51348.61783,-0.02,0.094,-0.994,192,0,0,0,0,0,0,0,0,0,0
 2023-06-24 15:06:28.150,-56910.29065,33220.34725,5962.685461,28393.75626,22614.44451,-59921.54001,15666.85178,-52076.25652,-0.02,0.094,-0.994,192,0,0,0,0,0,0,0,0,0,0
 2023-06-24 15:06:28.150,-56759.8187,34377.07238,7109.151138,29562.43957,23759.77025,-60598.19437,16811.9987,-52506.75112,-0.02,0.094,-0.994,192,0,0,0,0,0,0,0,0,0,0
 2023-06-24 15:06:28.150,-56464.52981,33943.22502,6646.201807,29222.17896,23304.06288,-59884.74904,16359.26412,-52067.33818,-0.02,0.094,-0.994,192,0,0,0,0,0,0,0,0,0,0
 2023-06-24 15:06:28.150,-56427.58237,32359.62628,5057.618625,27679.26039,21714.51857,-58642.26027,14779.39812,-51277.22636,-0.02,0.094,-0.994,192,0,0,0,0,0,0,0,0,0,0
 2023-06-24 15:06:28.150,-56702.97822,32030.87682,4758.261711,27273.62094,21408.63495,-58749.0122,14480.62235,-51343.40988,-0.02,0.094,-0.994,192,0,0,0,0,0,0,0,0,0,0
 2023-06-24 15:06:28.150,-56911.72116,33131.05203,5878.48644,28309.35607,22531.18426,-59920.55654,15591.16877,-52076.43534,-0.02,0.094,-0.994,192,0,0,0,0,0,0,0,0,0,0
 2023-06-24 15:06:28.150,-56770.0558,34261.20094,6999.471128,29454.36888,23648.9503,-60615.8299,16701.58108,-52518.21757,-0.02,0.094,-0.994,192,0,0,0,0,0,0,0,0,0,0
 2023-06-24 15:06:28.150,-56476.46564,33833.14268,6540.187483,29122.49018,23197.04273,-59919.88598,16248.51122,-52088.25941,-0.022,0.096,-0.992,192,255,80,3,0,225,0,0,0,0,0
 2023-06-24 15:06:28.150,-56436.45602,32249.29807,4943.468266,27585.36072,21607.94546,-58672.47983,14673.00381,-51292.38084,-0.022,0.096,-0.992,192,0,0,0,0,0,0,0,0,0,0
 2023-06-24 15:06:28.150,-56696.74208,31996.6563,4714.921679,27259.24876,21382.86339,-58751.5603,14448.70406,-51336.48084,-0.022,0.096,-0.992,192,0,0,0,0,0,0,0,0,0,0
 2023-06-24 15:06:28.150,-56900.70175,33137.62345,5877.905295,28315.27928,22543.2542,-59910.92293,15615.62158,-52059.69388,-0.022,0.096,-0.992,192,0,0,0,0,0,0,0,0,0,0
 2023-06-24 15:06:28.150,-56762.94795,34276.64599,7005.282581,29462.03553,23667.12226,-60617.8192,16723.44109,-52509.99212,-0.022,0.096,-0.992,192,0,0,0,0,0,0,0,0,0,0
 2023-06-24 15:06:28.150,-56462.24993,33897.94039,6601.744187,29171.73108,23262.46628,-59930.9948,16315.72292,-52087.61121,-0.022,0.096,-0.992,192,0,0,0,0,0,0,0,0,0,0
 2023-06-24 15:06:28.150,-56410.97503,32346.10347,5047.69445,27673.22542,21711.76931,-58672.7257,14779.15225,-51285.11653,-0.022,0.096,-0.992,192,0,0,0,0,0,0,0,0,0,0
 2023-06-24 15:06:28.150,-56670.25526,32064.53855,4791.94579,27336.92108,21463.62024,-58736.04819,14522.8895,-51319.42646,-0.022,0.096,-0.992,192,0,0,0,0,0,0,0,0,0,0
 2023-06-24 15:06:28.150,-56870.23632,33223.92353,5965.881761,28418.18671,22639.43376,-59884.77139,15683.52618,-52033.60939,-0.022,0.096,-0.992,192,0,0,0,0,0,0,0,0,0,0
 2023-06-24 15:06:28.150,-56731.07436,34384.22494,7116.326048,29576.9682,23781.67496,-60599.8037,16823.10752,-52486.83572,-0.022,0.096,-0.992,192,0,0,0,0,0,0,0,0,0,0
 2023-06-24 15:06:28.150,-56437.10422,33974.69628,6676.890752,29249.96218,23340.16095,-59932.00063,16391.49533,-52078.24583,-0.02,0.09,-0.99,192,255,96,2,208,225,16,0,0,0,0
 2023-06-24 15:06:28.150,-56393.96535,32347.08695,5037.703221,27672.89015,21705.17554,-58679.38652,14765.54004,-51281.98728,-0.02,0.09,-0.99,192,0,0,0,0,0,0,0,0,0,0
 2023-06-24 15:06:28.150,-56664.15324,31969.92361,4680.075309,27232.67254,21352.59913,-58736.04819,14413.58947,-51314.30791,-0.02,0.09,-0.99,192,0,0,0,0,0,0,0,0,0,0
 2023-06-24 15:06:28.150,-56870.48219,33104.40875,5836.666326,28286.24437,22505.77033,-59884.14554,15564.95018,-52030.14487,-0.02,0.09,-0.99,192,0,0,0,0,0,0,0,0,0,0
 2023-06-24 15:06:28.150,-56737.86929,34266.18537,6996.341884,29448.04334,23654.82881,-60613.66178,16707.61606,-52494.07768,-0.02,0.09,-0.99,192,0,0,0,0,0,0,0,0,0,0
 2023-06-24 15:06:28.150,-56435.40549,33943.42619,6645.777124,29211.87481,23309.91904,-59954.77706,16351.84334,-52087.85708,-0.02,0.09,-0.99,192,0,0,0,0,0,0,0,0,0,0
 2023-06-24 15:06:28.150,-56380.28608,32365.01305,5055.942244,27690.43627,21726.365,-58690.36122,14777.67703,-51281.80847,-0.02,0.09,-0.99,192,0,0,0,0,0,0,0,0,0,0
 2023-06-24 15:06:28.150,-56648.12704,31953.96447,4668.474754,27221.16139,21337.28818,-58730.05792,14391.97533,-51302.21561,-0.02,0.09,-0.99,192,0,0,0,0,0,0,0,0,0,0
 2023-06-24 15:06:28.150,-56857.24996,33062.45453,5794.153308,28251.80033,22462.63146,-59874.08726,15530.0144,-52013.04579,-0.02,0.09,-0.99,192,0,0,0,0,0,0,0,0,0,0
 2023-06-24 15:06:28.150,-56730.76144,34217.8162,6940.574281,29413.44284,23611.8017,-60619.98732,16675.5413,-52484.62289,-0.02,0.09,-0.99,192,0,0,0,0,0,0,0,0,0,0
 2023-06-24 15:06:28.150,-56434.19849,33881.06482,6577.5596,29162.96919,23251.31276,-59981.91207,16309.48678,-52091.05338,-0.016,0.092,-0.99,192,255,128,2,224,225,16,0,0,0,0
 2023-06-24 15:06:28.150,-56373.60291,32332.983,5025.767389,27673.53835,21699.72172,-58712.10947,14770.61388,-51280.37796,-0.016,0.092,-0.99,192,0,0,0,0,0,0,0,0,0,0
 2023-06-24 15:06:28.150,-56636.03474,31955.12676,4678.510687,27225.96702,21341.53501,-58728.06862,14416.42814,-51285.83178,-0.016,0.092,-0.99,192,0,0,0,0,0,0,0,0,0,0
 2023-06-24 15:06:28.150,-56845.53764,33068.42244,5812.057055,28258.93054,22472.0639,-59862.442,15532.29428,-51992.1022,-0.016,0.092,-0.99,192,0,0,0,0,0,0,0,0,0,0
 2023-06-24 15:06:28.150,-56724.07826,34221.16896,6952.912444,29422.78587,23617.50139,-60621.59665,16674.42372,-52473.31291,-0.016,0.092,-0.99,192,0,0,0,0,0,0,0,0,0,0
 2023-06-24 15:06:28.150,-56416.11593,33972.95284,6673.53799,29262.3674,23351.13565,-59989.93635,16397.41855,-52082.31385,-0.016,0.092,-0.99,192,0,0,0,0,0,0,0,0,0,0
 2023-06-24 15:06:28.150,-56352.56992,32403.56981,5093.604933,27756.95506,21776.70113,-58717.96563,14832.43881,-51271.929,-0.016,0.092,-0.99,192,0,0,0,0,0,0,0,0,0,0
 2023-06-24 15:06:28.150,-56614.59942,31994.62229,4715.70399,27275.00674,21389.32304,-58717.89857,14448.90522,-51268.84446,-0.016,0.092,-0.99,192,0,0,0,0,0,0,0,0,0,0
 2023-06-24 15:06:28.150,-56827.61155,33080.53709,5824.819902,28269.70408,22491.19699,-59846.54991,15552.07557,-51973.41615,-0.016,0.092,-0.99,192,0,0,0,0,0,0,0,0,0,0
 2023-06-24 15:06:28.150,-56718.66914,34195.17388,6931.119493,29386.01725,23593.67443,-60623.18362,16658.33046,-52468.7308,-0.016,0.092,-0.99,192,0,0,0,0,0,0,0,0,0,0
 2023-06-24 15:06:28.150,-56422.70969,33925.20951,6632.813112,29202.8,23296.61975,-60013.33863,16360.67228,-52092.77446,-0.018,0.096,-0.984,192,255,112,3,0,225,64,0,0,0,0
 2023-06-24 15:06:28.150,-56351.16176,32409.44831,5108.178271,27748.59551,21778.35515,-58733.32128,14841.40186,-51276.80168,-0.018,0.096,-0.984,192,0,0,0,0,0,0,0,0,0,0
 2023-06-24 15:06:28.150,-56613.43713,31968.09077,4693.598115,27243.60254,21364.40085,-58717.71976,14430.95677,-51264.59763,-0.018,0.096,-0.984,192,0,0,0,0,0,0,0,0,0,0
 2023-06-24 15:06:28.150,-56833.95944,33002.19423,5746.164113,28192.81408,22411.22245,-59843.57713,15480.19236,-51968.27525,-0.018,0.096,-0.984,192,0,0,0,0,0,0,0,0,0,0
 2023-06-24 15:06:28.151,-56713.84117,34228.32152,6961.137886,29429.20082,23628.54315,-60620.3226,16680.41398,-52461.06416,-0.018,0.096,-0.984,192,0,0,0,0,0,0,0,0,0,0
 2023-06-24 15:06:28.151,-56412.78552,33986.81092,6689.050101,29265.11666,23357.14827,-60025.52033,16414.49528,-52094.40614,-0.018,0.096,-0.984,192,0,0,0,0,0,0,0,0,0,0
 2023-06-24 15:06:28.151,-56343.56217,32414.34335,5106.50189,27748.97549,21778.17634,-58747.51464,14840.82071,-51280.71323,-0.018,0.096,-0.984,192,0,0,0,0,0,0,0,0,0,0
 2023-06-24 15:06:28.151,-56604.65289,31964.51449,4683.361016,27232.53843,21354.27551,-58711.39422,14416.36108,-51254.80756,-0.018,0.096,-0.984,192,0,0,0,0,0,0,0,0,0,0
 2023-06-24 15:06:28.151,-56833.87003,32965.22444,5704.567516,28161.58869,22375.81728,-59836.20105,15440.67448,-51958.7087,-0.018,0.096,-0.984,192,0,0,0,0,0,0,0,0,0,0
 2023-06-24 15:06:28.151,-56720.92667,34197.76669,6930.024258,29392.70042,23594.43439,-60625.21763,16663.18079,-52458.04667,-0.018,0.096,-0.984,192,0,0,0,0,0,0,0,0,0,0
 2023-06-24 15:06:28.151,-56420.54158,33988.80023,6694.392168,29253.73963,23353.12496,-60041.61358,16420.91023,-52096.86483,-0.014,0.096,-0.988,192,255,144,3,0,225,32,0,0,0,0
 2023-06-24 15:06:28.151,-56346.64671,32418.8584,5112.559213,27742.85111,21777.17051,-58759.96456,14841.87124,-51279.72976,-0.014,0.096,-0.988,192,0,0,0,0,0,0,0,0,0,0
 2023-06-24 15:06:28.151,-56603.13298,31976.62914,4696.012103,27240.96504,21359.52817,-58704.46518,14420.63027,-51240.68126,-0.014,0.096,-0.988,192,0,0,0,0,0,0,0,0,0,0
 2023-06-24 15:06:28.151,-56823.49882,33043.32144,5784.653817,28222.76541,22443.36426,-59813.58109,15501.91826,-51929.942,-0.014,0.096,-0.988,192,0,0,0,0,0,0,0,0,0,0
 2023-06-24 15:06:28.151,-56716.63513,34244.97357,6978.527543,29417.86849,23630.80068,-60619.92027,16691.4781,-52440.81347,-0.014,0.096,-0.988,192,0,0,0,0,0,0,0,0,0,0
 2023-06-24 15:06:28.151,-56420.58628,34019.77974,6725.259927,29278.61712,23376.90721,-60054.0188,16439.35042,-52094.69671,-0.014,0.096,-0.988,192,0,0,0,0,0,0,0,0,0,0
 2023-06-24 15:06:28.151,-56347.04904,32429.76605,5123.913899,27759.92784,21785.55242,-58771.63217,14848.73323,-51279.84152,-0.014,0.096,-0.988,192,0,0,0,0,0,0,0,0,0,0
 2023-06-24 15:06:28.151,-56600.67428,31976.65149,4695.900344,27248.58698,21360.37753,-58699.99483,14423.11131,-51228.63367,-0.014,0.096,-0.988,192,0,0,0,0,0,0,0,0,0,0
 2023-06-24 15:06:28.151,-56822.5824,33019.31566,5765.654834,28195.25042,22415.35752,-59801.66761,15483.9251,-51914.42989,-0.014,0.096,-0.988,192,0,0,0,0,0,0,0,0,0,0
 2023-06-24 15:06:28.151,-56714.31055,34255.41183,6996.67716,29429.40199,23642.62475,-60612.85712,16699.63648,-52428.78824,-0.014,0.096,-0.988,192,0,0,0,0,0,0,0,0,0,0
 2023-06-24 15:06:28.151,-56416.07123,34052.94973,6765.40366,29311.16126,23415.44162,-60061.32782,16460.42811,-52089.33229,-0.01,0.09,-0.99,192,255,176,2,208,225,16,0,0,0,0
 2023-06-24 15:06:28.151,-56336.70018,32469.99919,5168.192705,27799.95981,21828.84775,-58777.8683,14874.0354,-51273.9183,-0.01,0.09,-0.99,192,0,0,0,0,0,0,0,0,0,0
 2023-06-24 15:06:28.151,-56596.76273,31941.71571,4665.949007,27211.14781,21327.85575,-58693.78104,14392.42237,-51218.12835,-0.01,0.09,-0.99,192,0,0,0,0,0,0,0,0,0,0
 2023-06-24 15:06:28.151,-56824.03527,32992.62768,5740.240901,28175.98321,22393.89985,-59789.01652,15458.31,-51897.04024,-0.01,0.09,-0.99,192,0,0,0,0,0,0,0,0,0,0
 2023-06-24 15:06:28.151,-56722.55835,34234.51295,6971.754965,29421.57887,23628.94549,-60613.84059,16691.72397,-52418.81936,-0.01,0.09,-0.99,192,0,0,0,0,0,0,0,0,0,0
 2023-06-24 15:06:28.151,-56427.11299,34064.50558,6771.416279,29332.93186,23431.57958,-60077.95752,16497.64377,-52089.53346,-0.01,0.09,-0.99,192,0,0,0,0,0,0,0,0,0,0
 2023-06-24 15:06:28.151,-56333.81681,32558.53445,5252.279967,27885.99168,21911.57155,-58781.44458,14978.64157,-51263.43534,-0.01,0.09,-0.99,192,0,0,0,0,0,0,0,0,0,0
 2023-06-24 15:06:28.151,-56583.03876,32041.15862,4761.636825,27311.28363,21418.2015,-58674.08915,14494.18986,-51190.41219,-0.01,0.09,-0.99,192,0,0,0,0,0,0,0,0,0,0
 2023-06-24 15:06:28.151,-56818.46968,32988.38085,5733.289508,28187.44966,22387.01551,-59769.34698,15452.85618,-51872.34156,-0.01,0.09,-0.99,192,0,0,0,0,0,0,0,0,0,0
 2023-06-24 15:06:28.151,-56719.07147,34236.36815,6979.980407,29425.35632,23621.61411,-60604.31875,16688.46061,-52401.02737,-0.01,0.09,-0.99,192,0,0,0,0,0,0,0,0,0,0
 2023-06-24 15:06:28.151,-56421.56976,34098.27907,6814.510443,29371.22039,23463.252,-60078.3822,16528.31036,-52078.51405,-0.012,0.09,-0.984,192,255,160,2,208,225,64,0,0,0,0
 2023-06-24 15:06:28.151,-56338.39891,32512.22164,5210.213984,27858.61079,21871.8078,-58794.67682,14931.0547,-51262.42951,-0.012,0.09,-0.984,192,0,0,0,0,0,0,0,0,0,0
 2023-06-24 15:06:28.628,-56584.64808,32019.61154,4744.761258,27288.61896,21391.80409,-58669.43999,14455.38723,-51177.60464,-0.012,0.09,-0.984,192,0,0,0,0,0,0,0,0,0,0
 2023-06-24 15:06:28.628,-56814.87105,33017.68398,5767.085346,28213.15416,22411.51302,-59750.61622,15463.09328,-51848.78282,-0.012,0.09,-0.984,192,0,0,0,0,0,0,0,0,0,0
 2023-06-24 15:06:28.628,-56730.67203,34189.94357,6931.901804,29381.61396,23575.56952,-60606.62098,16626.30041,-52392.10902,-0.012,0.09,-0.984,192,0,0,0,0,0,0,0,0,0,0
 2023-06-24 15:06:28.628,-56439.85348,34036.81177,6751.858503,29305.39451,23400.73417,-60102.16446,16459.10936,-52083.40908,-0.012,0.09,-0.984,192,0,0,0,0,0,0,0,0,0,0
 2023-06-24 15:06:28.628,-56338.84595,32555.74048,5258.270235,27894.88767,21914.11965,-58806.41148,14964.3141,-51258.36149,-0.012,0.09,-0.984,192,0,0,0,0,0,0,0,0,0,0
 2023-06-24 15:06:28.628,-56573.13693,32090.33246,4818.052628,27360.68098,21467.33063,-58654.35256,14525.21408,-51157.82334,-0.012,0.09,-0.984,192,0,0,0,0,0,0,0,0,0,0
 2023-06-24 15:06:28.628,-56803.15874,33073.94333,5821.713009,28258.21528,22466.72183,-59724.44233,15532.83072,-51823.01126,-0.012,0.09,-0.984,192,0,0,0,0,0,0,0,0,0,0
 2023-06-24 15:06:28.628,-56719.20558,34271.23687,7008.501233,29457.27461,23658.44979,-60591.22063,16720.26714,-52373.13239,-0.012,0.09,-0.984,192,0,0,0,0,0,0,0,0,0,0
 2023-06-24 15:06:28.628,-56434.48906,34082.34228,6792.091643,29347.84047,23439.69326,-60111.55219,16488.12193,-52080.16808,-0.016,0.09,-0.988,192,255,128,2,208,225,32,0,0,0,0
 2023-06-24 15:06:28.628,-56329.90525,32604.62375,5302.616096,27923.05087,21949.79303,-58816.3133,15000.72509,-51254.82991,-0.016,0.09,-0.988,192,0,0,0,0,0,0,0,0,0,0
 2023-06-24 15:06:28.628,-56567.16902,32073.591,4794.918572,27339.22331,21447.86226,-58652.69854,14498.43669,-51147.63095,-0.016,0.09,-0.988,192,0,0,0,0,0,0,0,0,0,0
 2023-06-24 15:06:28.629,-56802.46583,33002.41774,5747.818142,28189.48367,22395.35271,-59714.78638,15445.68127,-51809.95784,-0.016,0.09,-0.988,192,0,0,0,0,0,0,0,0,0,0
 2023-06-24 15:06:28.629,-56725.62054,34183.41687,6919.876566,29368.94052,23571.85913,-60590.9077,16621.29362,-52366.71744,-0.016,0.09,-0.988,192,0,0,0,0,0,0,0,0,0,0
 2023-06-24 15:06:28.629,-56433.55029,34097.11678,6807.514347,29357.27291,23459.9663,-60117.58716,16513.33469,-52076.25652,-0.016,0.09,-0.988,192,0,0,0,0,0,0,0,0,0,0
 2023-06-24 15:06:28.629,-56329.94995,32619.48766,5318.284669,27937.73597,21969.48492,-58824.76226,15030.22939,-51254.0476,-0.016,0.09,-0.988,192,0,0,0,0,0,0,0,0,0,0
 2023-06-24 15:06:28.629,-56577.38377,32003.47358,4730.411438,27261.01455,21377.2084,-58653.74907,14436.65647,-51143.33941,-0.016,0.09,-0.988,192,0,0,0,0,0,0,0,0,0,0
 2023-06-24 15:06:28.629,-56818.22381,32914.57539,5662.143905,28097.0145,22310.79606,-59710.58425,15361.14697,-51799.31841,-0.016,0.09,-0.988,192,0,0,0,0,0,0,0,0,0,0
 2023-06-24 15:06:28.629,-56737.71283,34146.73765,6885.253714,29323.20885,23532.60947,-60591.15357,16590.38116,-52356.21212,-0.016,0.09,-0.988,192,0,0,0,0,0,0,0,0,0,0
 2023-06-24 15:06:28.629,-56448.70477,34050.84867,6766.185971,29301.4159,23415.08399,-60136.78731,16474.10738,-52077.46352,-0.012,0.092,-0.988,192,255,160,2,224,225,32,0,0,0,0
 2023-06-24 15:06:28.629,-56339.60591,32585.28949,5281.78427,27912.59025,21941.38878,-58845.1247,14993.8184,-51253.84644,-0.012,0.092,-0.988,192,0,0,0,0,0,0,0,0,0,0
 2023-06-24 15:06:28.629,-56580.22244,31971.80116,4692.994618,27244.54132,21347.54763,-58655.69367,14403.26296,-51129.83896,-0.012,0.092,-0.988,192,0,0,0,0,0,0,0,0,0,0
 2023-06-24 15:06:28.629,-56817.01682,32908.80864,5655.863065,28091.09129,22306.57158,-59696.18972,15354.70967,-51775.04441,-0.012,0.092,-0.988,192,0,0,0,0,0,0,0,0,0,0
 2023-06-24 15:06:28.629,-56741.33381,34152.30324,6892.428624,29328.3721,23544.16532,-60586.50441,16588.14598,-52339.82829,-0.012,0.092,-0.988,192,0,0,0,0,0,0,0,0,0,0
 2023-06-24 15:06:28.629,-56454.2033,34091.68531,6807.313181,29347.86282,23456.47943,-60147.24793,16495.43095,-52073.01552,-0.012,0.092,-0.988,192,0,0,0,0,0,0,0,0,0,0
 2023-06-24 15:06:28.629,-56340.83525,32651.67417,5355.880303,27975.10808,22007.08056,-58856.25587,15043.93101,-51250.7619,-0.012,0.092,-0.988,192,0,0,0,0,0,0,0,0,0,0
 2023-06-24 15:06:28.629,-56570.52178,32054.68143,4781.842802,27330.75199,21432.75248,-58642.34968,14472.55337,-51110.70587,-0.012,0.092,-0.988,192,0,0,0,0,0,0,0,0,0,0
 2023-06-24 15:06:28.629,-56808.34434,32955.90376,5704.522813,28138.29817,22349.55398,-59675.62612,15401.42481,-51751.1057,-0.012,0.092,-0.988,192,0,0,0,0,0,0,0,0,0,0
 2023-06-24 15:06:28.629,-56735.14238,34189.96593,6929.107836,29364.76074,23577.46942,-60576.96022,16638.03508,-52322.21512,-0.012,0.092,-0.988,192,0,0,0,0,0,0,0,0,0,0
 2023-06-24 15:06:28.629,-56444.72616,34161.26629,6872.78144,29421.91415,23526.6192,-60150.1313,16579.24999,-52062.26433,-0.014,0.094,-0.994,192,255,144,2,240,224,240,0,0,0,0
 2023-06-24 15:06:28.629,-56331.55928,32693.7178,5386.368082,28028.81933,22047.80543,-58863.25197,15107.45467,-51244.23519,-0.014,0.094,-0.994,192,0,0,0,0,0,0,0,0,0,0
 2023-06-24 15:06:28.629,-56564.64327,32060.53758,4775.450203,27341.45848,21441.76024,-58638.99692,14496.24622,-51099.03826,-0.014,0.094,-0.994,192,0,0,0,0,0,0,0,0,0,0
 2023-06-24 15:06:28.629,-56798.33076,33006.21754,5743.861883,28194.60221,22401.03005,-59659.77873,15456.90184,-51728.99982,-0.014,0.094,-0.994,192,0,0,0,0,0,0,0,0,0,0
 2023-06-24 15:06:28.629,-56727.96747,34253.24371,6988.742291,29434.45348,23643.8094,-60568.51126,16696.32842,-52304.0655,-0.014,0.094,-0.994,192,0,0,0,0,0,0,0,0,0,0
 2023-06-24 15:06:28.629,-56440.14405,34232.90363,6946.944528,29494.42321,23603.12922,-60158.11088,16648.56275,-52053.45774,-0.014,0.094,-0.994,192,0,0,0,0,0,0,0,0,0,0
 2023-06-24 15:06:28.629,-56321.99273,32791.97607,5488.359092,28126.89878,22155.94317,-58872.99733,15205.64588,-51235.24979,-0.014,0.094,-0.994,192,0,0,0,0,0,0,0,0,0,0
 2023-06-24 15:06:28.629,-56548.72883,32149.72104,4867.271169,27428.60793,21530.3849,-58628.5363,14583.30626,-51076.57475,-0.014,0.094,-0.994,192,0,0,0,0,0,0,0,0,0,0
 2023-06-24 15:06:28.629,-56790.39589,33015.98525,5760.402174,28202.49238,22410.17192,-59641.31619,15463.09328,-51702.53536,-0.014,0.094,-0.994,192,0,0,0,0,0,0,0,0,0,0
 2023-06-24 15:06:28.629,-56724.70411,34258.89871,7001.818061,29439.90731,23651.85602,-60558.56473,16695.63552,-52282.56312,-0.014,0.094,-0.994,192,0,0,0,0,0,0,0,0,0,0
 2023-06-24 15:06:28.629,-56448.90594,34184.4674,6898.798871,29449.56326,23556.50348,-60171.72309,16591.72226,-52048.56271,-0.014,0.094,-0.994,192,0,0,0,0,0,0,0,0,0,0
 2023-06-24 15:06:28.629,-56339.96354,32700.62449,5396.895754,28036.77655,22065.91035,-58897.89717,15109.13105,-51240.36834,-0.022,0.096,-0.988,192,255,80,3,0,225,32,0,0,0,0
 2023-06-24 15:06:28.629,-56568.28661,32030.96623,4748.404592,27314.03289,21418.22385,-58642.39438,14468.06067,-51075.12189,-0.022,0.096,-0.988,192,0,0,0,0,0,0,0,0,0,0
 2023-06-24 15:06:28.629,-56814.15579,32872.35294,5613.26064,28070.7959,22276.7767,-59646.32298,15321.09264,-51697.55092,-0.022,0.096,-0.988,192,0,0,0,0,0,0,0,0,0,0
 2023-06-24 15:06:28.629,-56749.33574,34141.93203,6880.537496,29328.77443,23542.22072,-60569.67355,16582.84862,-52282.49607,-0.022,0.096,-0.988,192,0,0,0,0,0,0,0,0,0,0
 2023-06-24 15:06:28.629,-56464.46275,34150.26923,6863.751336,29407.29611,23525.52396,-60188.71041,16572.74563,-52052.78719,-0.022,0.096,-0.988,192,0,0,0,0,0,0,0,0,0,0
 2023-06-24 15:06:28.629,-56337.34838,32773.1112,5470.276531,28096.14278,22133.34556,-58908.64836,15182.62359,-51237.35085,-0.022,0.096,-0.988,192,0,0,0,0,0,0,0,0,0,0
 2023-06-24 15:06:28.629,-56549.22057,32163.10974,4878.916428,27438.30859,21542.36544,-58626.30112,14590.12354,-51050.982,-0.022,0.096,-0.988,192,0,0,0,0,0,0,0,0,0,0
 2023-06-24 15:06:28.629,-56798.62133,32945.13022,5683.288656,28136.7112,22339.76392,-59620.95375,15391.6124,-51667.93485,-0.022,0.096,-0.988,192,0,0,0,0,0,0,0,0,0,0
 2023-06-24 15:06:28.629,-56737.55637,34216.02806,6951.504284,29392.34279,23603.62096,-60553.49088,16654.75418,-52258.91498,-0.022,0.096,-0.988,192,0,0,0,0,0,0,0,0,0,0
 2023-06-24 15:06:28.629,-56448.68242,34273.62851,6980.516849,29518.47369,23641.73068,-60187.68223,16708.2419,-52038.66089,-0.022,0.096,-0.988,192,0,0,0,0,0,0,0,0,0,0
 2023-06-24 15:06:28.629,-56323.04327,32891.15076,5581.632922,28219.54676,22251.69805,-58914.59392,15298.85266,-51229.14776,-0.022,0.096,-0.992,192,255,80,3,0,225,0,0,0,0,0
 2023-06-24 15:06:28.629,-56555.23319,32095.22749,4812.285878,27379.61291,21472.6727,-58637.58876,14517.59213,-51052.54663,-0.022,0.096,-0.992,192,0,0,0,0,0,0,0,0,0,0
 2023-06-24 15:06:28.629,-56799.04602,32900.29262,5644.418972,28095.60634,22299.1955,-59613.48827,15342.10328,-51656.9825,-0.022,0.096,-0.992,192,0,0,0,0,0,0,0,0,0,0
 2023-06-24 15:06:28.629,-56745.62535,34127.4928,6865.98651,29303.89694,23514.99629,-60557.02246,16562.44148,-52254.44463,-0.022,0.096,-0.992,192,0,0,0,0,0,0,0,0,0,0
 2023-06-24 15:06:28.629,-56460.10416,34212.76471,6924.883357,29452.82661,23578.09527,-60207.41882,16640.40436,-52044.07001,-0.022,0.096,-0.992,192,0,0,0,0,0,0,0,0,0,0
 2023-06-24 15:06:28.629,-56332.00632,32851.11879,5545.780724,28164.3156,22211.44256,-58939.09144,15268.72251,-51237.84259,-0.022,0.096,-0.992,192,0,0,0,0,0,0,0,0,0,0
 2023-06-24 15:06:28.629,-56549.06411,32146.10006,4858.151657,27426.55157,21529.44613,-58635.04066,14571.6163,-51042.17542,-0.022,0.096,-0.992,192,0,0,0,0,0,0,0,0,0,0
 2023-06-24 15:06:28.629,-56797.21317,32910.2168,5650.364536,28109.82205,22309.03027,-59600.85953,15336.82827,-51640.66573,-0.022,0.096,-0.992,192,0,0,0,0,0,0,0,0,0,0
 2023-06-24 15:06:28.629,-56746.96645,34144.54718,6882.12447,29325.51108,23534.44231,-60547.16534,16568.40939,-52238.88782,-0.022,0.096,-0.992,192,0,0,0,0,0,0,0,0,0,0
 2023-06-24 15:06:28.629,-56471.86118,34170.81048,6883.197353,29419.05313,23539.04677,-60220.56165,16579.89819,-52044.29353,-0.022,0.096,-0.992,192,0,0,0,0,0,0,0,0,0,0
 2023-06-24 15:06:28.629,-56346.57965,32789.85265,5481.094775,28113.33127,22150.22113,-58963.05251,15187.2951,-51245.28572,-0.014,0.096,-0.994,192,255,144,3,0,224,240,0,0,0,0
 2023-06-24 15:06:28.629,-56554.98732,32118.9874,4831.240157,27395.61676,21496.87964,-58639.24278,14533.39482,-51034.75464,-0.014,0.096,-0.994,192,0,0,0,0,0,0,0,0,0,0
 2023-06-24 15:06:28.629,-56805.8633,32850.71645,5586.818527,28039.01172,22242.80205,-59596.74681,15288.23558,-51627.88053,-0.014,0.096,-0.994,192,0,0,0,0,0,0,0,0,0,0
 2023-06-24 15:06:28.629,-56754.5884,34132.16432,6867.729946,29300.36536,23521.72417,-60548.77467,16575.74076,-52227.95781,-0.014,0.096,-0.994,192,0,0,0,0,0,0,0,0,0,0
 2023-06-24 15:06:28.629,-56480.19838,34183.171,6895.691978,29422.51765,23549.84266,-60239.8065,16597.89134,-52044.38294,-0.014,0.096,-0.994,192,0,0,0,0,0,0,0,0,0,0
 2023-06-24 15:06:28.629,-56359.14133,32793.65245,5489.879011,28116.66168,22151.8081,-58992.86973,15185.73048,-51251.29834,-0.014,0.096,-0.994,192,0,0,0,0,0,0,0,0,0,0
 2023-06-24 15:06:28.629,-56577.02614,32038.72228,4757.099421,27320.22432,21419.16262,-58661.2816,14458.09179,-51036.34161,-0.014,0.096,-0.994,192,0,0,0,0,0,0,0,0,0,0
 2023-06-24 15:06:28.629,-56817.95559,32824.90019,5562.410422,28025.13129,22224.7642,-59597.2162,15257.59134,-51614.71535,-0.014,0.096,-0.994,192,0,0,0,0,0,0,0,0,0,0
 2023-06-24 15:06:28.629,-56765.80897,34138.51221,6874.56958,29311.36242,23529.70374,-60550.33929,16557.43468,-52216.849,-0.014,0.096,-0.994,192,0,0,0,0,0,0,0,0,0,0
 2023-06-24 15:06:28.629,-56483.6182,34272.8909,6981.030939,29515.27739,23643.31766,-60248.38957,16676.05539,-52036.06809,-0.014,0.096,-0.994,192,0,0,0,0,0,0,0,0,0,0
 2023-06-24 15:06:28.629,-56349.57479,32933.79789,5618.490948,28246.03358,22285.53859,-58995.08256,15323.57369,-51239.76484,-0.016,0.09,-0.988,192,255,128,2,208,225,32,0,0,0,0
 2023-06-24 15:06:28.629,-56564.01742,32137.74051,4841.589015,27406.68087,21510.96124,-58647.31176,14558.92051,-51017.99083,-0.016,0.09,-0.988,192,0,0,0,0,0,0,0,0,0,0
 2023-06-24 15:06:28.629,-56808.76902,32880.98072,5608.142091,28076.38384,22281.44822,-59577.3008,15315.95174,-51593.5706,-0.016,0.09,-0.988,192,0,0,0,0,0,0,0,0,0,0
 2023-06-24 15:06:28.629,-56766.32306,34139.96507,6866.031214,29308.61316,23529.07789,-60545.53366,16560.1616,-52204.57789,-0.016,0.09,-0.988,192,0,0,0,0,0,0,0,0,0,0
 2023-06-24 15:06:28.629,-56491.62012,34251.03089,6951.928967,29485.61662,23616.40616,-60265.75688,16645.41115,-52037.18567,-0.016,0.09,-0.988,192,0,0,0,0,0,0,0,0,0,0
 2023-06-24 15:06:28.629,-56354.00043,32936.16717,5617.686286,28244.58072,22288.73489,-59018.686,15334.19077,-51243.1623,-0.016,0.09,-0.988,192,0,0,0,0,0,0,0,0,0,0
 2023-06-24 15:06:28.630,-56563.0563,32135.03595,4840.784352,27407.48553,21508.12256,-58653.70436,14544.30247,-51007.26199,-0.016,0.09,-0.988,192,0,0,0,0,0,0,0,0,0,0
 2023-06-24 15:06:28.630,-56809.30547,32848.86126,5580.850611,28032.55207,22238.19759,-59570.05883,15275.13746,-51573.96812,-0.016,0.09,-0.988,192,0,0,0,0,0,0,0,0,0,0
 2023-06-24 15:06:28.630,-56775.42022,34073.31217,6808.319009,29237.69107,23456.79235,-60546.87477,16485.57383,-52192.97733,-0.016,0.09,-0.988,192,0,0,0,0,0,0,0,0,0,0
 2023-06-24 15:06:28.630,-56494.97288,34257.64701,6969.296273,29480.14045,23613.00869,-60276.3069,16652.67547,-52029.54138,-0.016,0.09,-0.988,192,0,0,0,0,0,0,0,0,0,0
 2023-06-24 15:06:28.630,-56355.05096,32958.00483,5646.743553,28261.97037,22298.94963,-59035.33805,15347.11007,-51240.16717,-0.014,0.092,-0.986,192,255,144,2,224,225,48,0,0,0,0
 2023-06-24 15:06:28.630,-56565.55969,32126.74345,4834.659974,27401.2941,21493.92921,-58655.64897,14554.62897,-50996.44375,-0.014,0.092,-0.986,192,0,0,0,0,0,0,0,0,0,0
 2023-06-24 15:06:28.630,-56814.49107,32816.89826,5550.876922,28008.94863,22205.76521,-59561.78869,15262.97811,-51555.8185,-0.014,0.092,-0.986,192,0,0,0,0,0,0,0,0,0,0
 2023-06-24 15:06:28.630,-56776.4484,34097.94379,6831.944803,29270.99517,23483.25681,-60536.97294,16523.013,-52170.08915,-0.014,0.092,-0.986,192,0,0,0,0,0,0,0,0,0,0
 2023-06-24 15:06:28.630,-56507.35575,34218.68792,6927.587918,29454.25713,23577.71529,-60291.6402,16622.07593,-52023.99814,-0.014,0.092,-0.986,192,0,0,0,0,0,0,0,0,0,0
 2023-06-24 15:06:28.630,-56372.01594,32889.07205,5579.30834,28202.7159,22237.10236,-59058.67327,15284.63695,-51241.8659,-0.014,0.092,-0.986,192,0,0,0,0,0,0,0,0,0,0
 2023-06-24 15:06:28.630,-56569.71712,32133.82895,4845.277053,27406.27854,21502.2217,-58652.56442,14547.92345,-50981.28927,-0.014,0.092,-0.986,192,0,0,0,0,0,0,0,0,0,0
 2023-06-24 15:06:28.630,-56822.38124,32792.91484,5529.061619,27992.74361,22183.88285,-59553.38443,15218.14051,-51536.26073,-0.014,0.092,-0.986,192,0,0,0,0,0,0,0,0,0,0
 2023-06-24 15:06:28.630,-56791.22291,34073.28982,6810.777701,29245.0895,23461.2627,-60537.7329,16498.53784,-52154.0853,-0.014,0.092,-0.986,192,0,0,0,0,0,0,0,0,0,0
 2023-06-24 15:06:28.630,-56514.79888,34292.8063,7005.39434,29527.03441,23655.54406,-60297.40695,16700.68702,-52009.3801,-0.014,0.092,-0.986,192,0,0,0,0,0,0,0,0,0,0
 2023-06-24 15:06:28.630,-56375.92749,32977.96494,5673.923275,28291.49703,22331.27026,-59069.11153,15390.85244,-51231.27118,-0.02,0.09,-0.988,192,255,96,2,208,225,32,0,0,0,0
 2023-06-24 15:06:28.630,-56583.5752,32106.2022,4823.662916,27382.38452,21480.49581,-58660.5887,14531.45022,-50968.48172,-0.02,0.09,-0.988,192,0,0,0,0,0,0,0,0,0,0
 2023-06-24 15:06:28.630,-56829.31028,32786.99163,5527.161721,27970.63774,22176.59619,-59541.89563,15231.01511,-51511.94203,-0.02,0.09,-0.988,192,0,0,0,0,0,0,0,0,0,0
 2023-06-24 15:06:28.630,-56795.82736,34074.69798,6818.913736,29235.92529,23465.88951,-60525.26063,16511.03246,-52132.47116,-0.02,0.09,-0.988,192,0,0,0,0,0,0,0,0,0,0
 2023-06-24 15:06:28.630,-56523.06903,34289.45354,7008.925916,29527.05676,23665.26707,-60302.90548,16706.49847,-52000.05943,-0.02,0.09,-0.988,192,0,0,0,0,0,0,0,0,0,0
 2023-06-24 15:06:28.630,-56378.22972,33016.6558,5716.436293,28331.19373,22378.90182,-59079.99683,15431.89024,-51224.38684,-0.02,0.09,-0.988,192,0,0,0,0,0,0,0,0,0,0
 2023-06-24 15:06:28.630,-56582.3235,32153.49849,4875.049576,27423.95877,21530.72018,-58652.22915,14593.02927,-50949.97447,-0.02,0.09,-0.988,192,0,0,0,0,0,0,0,0,0,0
 2023-06-24 15:06:28.630,-56827.76801,32835.62903,5582.325826,28023.4102,22233.03434,-59521.04146,15287.8109,-51484.04705,-0.02,0.09,-0.988,192,0,0,0,0,0,0,0,0,0,0
 2023-06-24 15:06:28.630,-56796.85554,34122.17309,6869.629844,29287.89309,23512.80582,-60508.2286,16550.81857,-52106.54314,-0.02,0.09,-0.988,192,0,0,0,0,0,0,0,0,0,0
 2023-06-24 15:06:28.630,-56537.10592,34255.03185,6978.125212,29488.09767,23627.1797,-60310.41566,16662.46553,-51994.31503,-0.02,0.09,-0.988,192,0,0,0,0,0,0,0,0,0,0
 2023-06-24 15:06:28.630,-56385.73991,33025.08241,5724.72879,28338.65921,22389.27303,-59093.0726,15419.41797,-51223.8951,-0.018,0.092,-0.986,192,255,112,2,224,225,48,0,0,0,0
 2023-06-24 15:06:28.630,-56579.30602,32197.75494,4909.538318,27488.44355,21581.21277,-58645.03189,14613.48112,-50936.9434,-0.018,0.092,-0.986,192,0,0,0,0,0,0,0,0,0,0
 2023-06-24 15:06:28.630,-56826.78453,32833.99735,5571.462878,28037.22358,22234.4425,-59501.48368,15272.72347,-51466.97032,-0.018,0.092,-0.986,192,0,0,0,0,0,0,0,0,0,0
 2023-06-24 15:06:28.630,-56803.73988,34085.91856,6826.446274,29259.64049,23480.82047,-60498.32678,16515.16754,-52095.859,-0.018,0.092,-0.986,192,0,0,0,0,0,0,0,0,0,0
 2023-06-24 15:06:28.630,-56539.76578,34317.30381,7032.976393,29548.40267,23688.35642,-60312.7626,16728.31377,-51987.74361,-0.018,0.092,-0.986,192,0,0,0,0,0,0,0,0,0,0
 2023-06-24 15:06:28.630,-56387.46099,33111.18133,5804.658628,28411.90587,22464.48665,-59103.51087,15505.47218,-51221.07878,-0.018,0.092,-0.986,192,0,0,0,0,0,0,0,0,0,0
 2023-06-24 15:06:28.630,-56589.18549,32187.71901,4899.010646,27458.24635,21556.67055,-58647.82585,14603.78046,-50929.32146,-0.018,0.092,-0.986,192,0,0,0,0,0,0,0,0,0,0
 2023-06-24 15:06:28.630,-56842.54251,32771.14424,5513.527157,27959.75244,22159.83238,-59498.5109,15207.27756,-51453.84985,-0.018,0.092,-0.986,192,0,0,0,0,0,0,0,0,0,0
 2023-06-24 15:06:28.630,-56819.45316,34033.99545,6782.882724,29186.0809,23414.39109,-60498.48324,16468.47474,-52083.94552,-0.018,0.092,-0.986,192,0,0,0,0,0,0,0,0,0,0
 2023-06-24 15:06:28.630,-56546.13603,34333.91116,7057.317443,29545.65341,23697.78886,-60320.4963,16753.21361,-51980.09932,-0.018,0.092,-0.986,192,0,0,0,0,0,0,0,0,0,0
 2023-06-24 15:06:28.630,-56398.50275,33069.20476,5765.319558,28372.16447,22423.11358,-59128.58953,15476.95136,-51225.8844,-0.024,0.1,-0.99,192,255,64,3,32,225,16,0,0,0,0
 2023-06-24 15:06:28.630,-56596.20393,32145.87654,4863.56078,27411.77707,21510.35774,-58655.64897,14579.21589,-50922.63829,-0.024,0.1,-0.99,192,0,0,0,0,0,0,0,0,0,0
 2023-06-24 15:06:28.630,-56842.96719,32765.26573,5506.933392,27960.04301,22151.33871,-59489.25727,15226.2989,-51434.53794,-0.024,0.1,-0.99,192,0,0,0,0,0,0,0,0,0,0
 2023-06-24 15:06:28.630,-56829.75731,33982.60879,6728.612689,29153.40264,23366.89363,-60498.77381,16423.52538,-52070.98151,-0.024,0.1,-0.99,192,0,0,0,0,0,0,0,0,0,0
 2023-06-24 15:06:28.630,-56564.57622,34273.78497,6996.967733,29504.10152,23638.24381,-60340.63522,16689.89112,-51977.55122,-0.024,0.1,-0.99,192,0,0,0,0,0,0,0,0,0,0
 2023-06-24 15:06:28.630,-56407.06347,33087.24261,5789.906477,28397.84663,22438.8045,-59150.18131,15489.6248,-51224.09627,-0.024,0.1,-0.99,192,0,0,0,0,0,0,0,0,0,0
 2023-06-24 15:06:28.630,-56597.99207,32153.18556,4873.328492,27431.82658,21518.44907,-58658.91232,14579.84174,-50909.87544,-0.024,0.1,-0.99,192,0,0,0,0,0,0,0,0,0,0
 2023-06-24 15:06:28.630,-56845.20237,32750.7371,5500.183165,27946.87783,22144.87906,-59478.93077,15203.34365,-51415.53896,-0.024,0.1,-0.99,192,0,0,0,0,0,0,0,0,0,0
 2023-06-24 15:06:28.630,-56825.26461,34036.49885,6789.722358,29217.37334,23437.39104,-60482.97113,16473.97327,-52046.39459,-0.024,0.1,-0.99,192,0,0,0,0,0,0,0,0,0,0
 2023-06-24 15:06:28.630,-56567.19137,34301.76935,7030.696515,29536.28803,23679.16986,-60344.83735,16721.22827,-51965.16835,-0.024,0.1,-0.99,192,0,0,0,0,0,0,0,0,0,0
 2023-06-24 15:06:28.630,-56412.38319,33111.3825,5819.075503,28416.97972,22468.9123,-59171.59428,15517.89975,-51224.14097,-0.024,0.092,-0.99,192,255,64,2,224,225,16,0,0,0,0
 2023-06-24 15:06:29.108,-56594.32639,32217.15626,4941.925996,27496.57959,21591.62868,-58660.11931,14642.15841,-50898.25253,-0.024,0.092,-0.99,192,0,0,0,0,0,0,0,0,0,0
 2023-06-24 15:06:29.108,-56847.5493,32747.5855,5497.277438,27945.91671,22143.31444,-59472.15819,15196.2805,-51400.65269,-0.024,0.092,-0.99,192,0,0,0,0,0,0,0,0,0,0
 2023-06-24 15:06:29.108,-56834.78646,34002.85947,6752.193779,29170.21116,23400.75653,-60482.43469,16444.31251,-52037.61036,-0.024,0.092,-0.99,192,0,0,0,0,0,0,0,0,0,0
 2023-06-24 15:06:29.108,-56572.22051,34327.71973,7049.226111,29555.8011,23701.5216,-60352.30283,16740.18255,-51961.41326,-0.024,0.092,-0.99,192,0,0,0,0,0,0,0,0,0,0
 2023-06-24 15:06:29.108,-56413.03139,33173.85562,5870.596274,28470.28863,22528.97144,-59186.32408,15577.10952,-51221.16819,-0.024,0.092,-0.99,192,0,0,0,0,0,0,0,0,0,0
 2023-06-24 15:06:29.108,-56588.04555,32300.12593,5013.585688,27568.4628,21671.60322,-58654.57608,14730.40309,-50878.89592,-0.024,0.092,-0.99,192,0,0,0,0,0,0,0,0,0,0
 2023-06-24 15:06:29.108,-56852.57844,32741.34937,5479.507801,27940.21701,22138.64292,-59462.79281,15184.23291,-51380.02203,-0.024,0.092,-0.99,192,0,0,0,0,0,0,0,0,0,0
 2023-06-24 15:06:29.108,-56849.09157,33958.20069,6696.33677,29122.62429,23352.83439,-60482.09941,16391.94237,-52023.28289,-0.024,0.092,-0.99,192,0,0,0,0,0,0,0,0,0,0
 2023-06-24 15:06:29.108,-56594.61696,34281.33986,6997.437119,29495.92078,23648.12328,-60369.62543,16694.89791,-51959.73688,-0.024,0.092,-0.99,192,0,0,0,0,0,0,0,0,0,0
 2023-06-24 15:06:29.108,-56430.71162,33164.98198,5866.796478,28449.65797,22517.28147,-59209.05581,15570.42635,-51225.92911,-0.026,0.094,-0.99,192,255,48,2,240,225,16,0,0,0,0
 2023-06-24 15:06:29.108,-56602.01539,32270.75574,4986.629484,27542.73594,21645.13876,-58664.12028,14692.02515,-50878.47124,-0.026,0.094,-0.99,192,0,0,0,0,0,0,0,0,0,0
 2023-06-24 15:06:29.108,-56856.19943,32755.56508,5493.857621,27951.30348,22146.19781,-59451.75105,15188.23387,-51366.47688,-0.026,0.094,-0.99,192,0,0,0,0,0,0,0,0,0,0
 2023-06-24 15:06:29.108,-56859.57454,33919.68863,6662.116249,29081.78766,23310.50018,-60476.93616,16350.36812,-52018.54432,-0.026,0.094,-0.99,192,0,0,0,0,0,0,0,0,0,0
 2023-06-24 15:06:29.108,-56604.92112,34246.64995,6967.642244,29467.19879,23616.76378,-60377.69441,16643.55596,-51962.57555,-0.026,0.094,-0.99,192,0,0,0,0,0,0,0,0,0,0
 2023-06-24 15:06:29.108,-56436.50072,33163.12679,5863.488419,28457.77165,22513.23581,-59224.3444,15545.45945,-51232.45582,-0.026,0.094,-0.99,192,0,0,0,0,0,0,0,0,0,0
 2023-06-24 15:06:29.108,-56620.52263,32172.96686,4892.081605,27439.6944,21538.38683,-58680.52646,14591.41995,-50887.65781,-0.026,0.094,-0.99,192,0,0,0,0,0,0,0,0,0,0
 2023-06-24 15:06:29.108,-56877.85827,32669.62262,5412.385513,27862.76822,22059.94243,-59456.69078,15115.52365,-51366.29806,-0.026,0.094,-0.99,192,0,0,0,0,0,0,0,0,0,0
 2023-06-24 15:06:29.108,-56878.39471,33881.98124,6628.700391,29055.47965,23274.29036,-60478.769,16317.13108,-52012.21877,-0.026,0.094,-0.99,192,0,0,0,0,0,0,0,0,0,0
 2023-06-24 15:06:29.108,-56614.9347,34286.16783,7008.791805,29519.43481,23662.49545,-60381.71773,16704.41976,-51956.58528,-0.026,0.094,-0.99,192,0,0,0,0,0,0,0,0,0,0
 2023-06-24 15:06:29.108,-56448.07892,33159.68462,5859.442754,28468.65695,22521.95299,-59240.63882,15575.67901,-51234.37807,-0.024,0.096,-0.986,192,255,64,3,0,225,48,0,0,0,0
 2023-06-24 15:06:29.108,-56623.56247,32184.63447,4902.810443,27465.3989,21563.21961,-58683.36513,14614.71046,-50878.60535,-0.024,0.096,-0.986,192,0,0,0,0,0,0,0,0,0,0
 2023-06-24 15:06:29.108,-56878.79704,32675.1435,5418.353429,27881.83425,22077.80148,-59448.06301,15123.86085,-51350.29421,-0.024,0.096,-0.986,192,0,0,0,0,0,0,0,0,0,0
 2023-06-24 15:06:29.108,-56880.78635,33898.7227,6648.057002,29070.09769,23302.58766,-60475.30448,16348.55763,-51995.2091,-0.024,0.096,-0.986,192,0,0,0,0,0,0,0,0,0,0
 2023-06-24 15:06:29.108,-56624.72476,34267.21356,6996.073663,29486.73421,23651.36428,-60398.48154,16700.91053,-51951.48909,-0.024,0.096,-0.986,192,0,0,0,0,0,0,0,0,0,0
 2023-06-24 15:06:29.108,-56451.69991,33193.52516,5901.173461,28492.75213,22564.08603,-59259.36958,15622.8859,-51229.95242,-0.024,0.096,-0.986,192,0,0,0,0,0,0,0,0,0,0
 2023-06-24 15:06:29.108,-56616.05228,32263.69259,4986.651836,27550.49199,21651.15138,-58684.10274,14702.73163,-50863.27205,-0.024,0.096,-0.986,192,0,0,0,0,0,0,0,0,0,0
 2023-06-24 15:06:29.108,-56877.74651,32693.13666,5441.085153,27905.5271,22101.69549,-59444.86671,15140.71407,-51332.88221,-0.024,0.096,-0.986,192,0,0,0,0,0,0,0,0,0,0
 2023-06-24 15:06:29.108,-56883.71442,33893.69355,6644.167798,29058.6983,23298.76552,-60474.58923,16341.04745,-51980.524,-0.024,0.096,-0.986,192,0,0,0,0,0,0,0,0,0,0
 2023-06-24 15:06:29.108,-56624.38948,34301.29997,7029.444817,29513.26573,23681.6509,-60403.06364,16730.86187,-51941.11788,-0.024,0.096,-0.986,192,0,0,0,0,0,0,0,0,0,0
 2023-06-24 15:06:29.108,-56453.37629,33221.97893,5928.263775,28523.39638,22592.15982,-59271.19366,15636.25224,-51227.47138,-0.026,0.096,-0.984,192,255,48,3,0,225,64,0,0,0,0
 2023-06-24 15:06:29.108,-56620.1203,32248.4934,4966.959949,27533.12469,21633.31469,-58688.19311,14672.60148,-50856.52183,-0.026,0.096,-0.984,192,0,0,0,0,0,0,0,0,0,0
 2023-06-24 15:06:29.108,-56884.60849,32656.83742,5396.627533,27866.61272,22060.00949,-59440.64223,15094.3342,-51320.18641,-0.026,0.096,-0.984,192,0,0,0,0,0,0,0,0,0,0
 2023-06-24 15:06:29.108,-56886.48604,33917.49816,6659.903426,29089.05197,23320.73728,-60469.00129,16357.18541,-51965.146,-0.026,0.096,-0.984,192,0,0,0,0,0,0,0,0,0,0
 2023-06-24 15:06:29.108,-56633.64311,34300.00356,7021.554651,29521.11119,23683.99783,-60414.17246,16727.24089,-51937.60865,-0.026,0.096,-0.984,192,0,0,0,0,0,0,0,0,0,0
 2023-06-24 15:06:29.108,-56457.3549,33250.29859,5950.615519,28543.42354,22614.48921,-59288.09157,15675.07722,-51225.37031,-0.026,0.096,-0.984,192,0,0,0,0,0,0,0,0,0,0
 2023-06-24 15:06:29.108,-56619.56151,32248.06872,4962.847228,27529.28019,21630.74423,-58693.53517,14691.60046,-50845.99416,-0.026,0.096,-0.984,192,0,0,0,0,0,0,0,0,0,0
 2023-06-24 15:06:29.108,-56878.2606,32665.30873,5402.86367,27869.56315,22062.89286,-59426.91826,15115.92598,-51297.00766,-0.026,0.096,-0.984,192,0,0,0,0,0,0,0,0,0,0
 2023-06-24 15:06:29.108,-56885.3908,33900.0638,6644.033688,29057.22309,23292.70819,-60460.86525,16345.49544,-51945.05178,-0.026,0.096,-0.984,192,0,0,0,0,0,0,0,0,0,0
 2023-06-24 15:06:29.108,-56631.43028,34297.23195,7022.94046,29501.2852,23669.96094,-60420.02862,16718.41195,-51924.30936,-0.026,0.096,-0.984,192,0,0,0,0,0,0,0,0,0,0
 2023-06-24 15:06:29.108,-56449.6659,33278.75236,5981.483278,28568.07751,22638.0703,-59299.11098,15678.31822,-51213.50154,-0.022,0.096,-0.99,192,255,80,3,0,225,16,0,0,0,0
 2023-06-24 15:06:29.108,-56606.73161,32282.71392,4999.548793,27553.30831,21651.64312,-58693.40106,14708.029,-50826.79401,-0.022,0.096,-0.99,192,0,0,0,0,0,0,0,0,0,0
 2023-06-24 15:06:29.109,-56860.40155,32713.40969,5456.485505,27902.82254,22098.34273,-59413.79779,15153.43221,-51270.74436,-0.022,0.096,-0.99,192,0,0,0,0,0,0,0,0,0,0
 2023-06-24 15:06:29.109,-56876.02542,33888.79852,6636.992888,29040.0793,23275.34089,-60454.51736,16325.02125,-51924.17525,-0.022,0.096,-0.99,192,0,0,0,0,0,0,0,0,0,0
 2023-06-24 15:06:29.109,-56626.22233,34276.75775,7001.371026,29480.18515,23645.57518,-60427.40469,16695.61317,-51909.17723,-0.022,0.096,-0.99,192,0,0,0,0,0,0,0,0,0,0
 2023-06-24 15:06:29.109,-56448.01187,33234.16063,5932.04122,28517.67433,22583.91202,-59317.81939,15634.4641,-51204.6279,-0.022,0.096,-0.99,192,0,0,0,0,0,0,0,0,0,0
 2023-06-24 15:06:29.109,-56598.88614,32276.47779,4987.143575,27542.57948,21638.99203,-58695.68094,14698.41775,-50806.54333,-0.022,0.096,-0.99,192,0,0,0,0,0,0,0,0,0,0
 2023-06-24 15:06:29.109,-56853.87484,32703.19494,5439.274661,27897.59223,22090.54197,-59403.82891,15147.17372,-51242.49175,-0.022,0.096,-0.99,192,0,0,0,0,0,0,0,0,0,0
 2023-06-24 15:06:29.109,-56869.87869,33931.4233,6670.788726,29090.21426,23321.5643,-60444.90611,16380.05124,-51894.80506,-0.022,0.096,-0.99,192,0,0,0,0,0,0,0,0,0,0
 2023-06-24 15:06:29.109,-56620.65674,34338.2921,7055.976338,29540.69132,23700.94045,-60429.46105,16761.3273,-51888.59128,-0.022,0.096,-0.99,192,0,0,0,0,0,0,0,0,0,0
 2023-06-24 15:06:29.109,-56440.30052,33317.30912,6014.385046,28595.74897,22663.50659,-59325.41899,15726.93327,-51186.72415,-0.022,0.1,-0.992,192,255,80,3,32,225,0,0,0,0,0
 2023-06-24 15:06:29.109,-56599.95903,32265.7266,4975.565371,27543.80882,21633.80642,-58701.91708,14685.29727,-50789.84657,-0.022,0.1,-0.992,192,0,0,0,0,0,0,0,0,0,0
 2023-06-24 15:06:29.109,-56859.99922,32615.91138,5350.806457,27821.08221,22008.66753,-59402.80073,15070.90957,-51223.98451,-0.022,0.1,-0.992,192,0,0,0,0,0,0,0,0,0,0
 2023-06-24 15:06:29.109,-56880.62988,33816.71415,6560.885198,28981.02599,23209.80557,-60448.08006,16258.79303,-51879.56117,-0.022,0.1,-0.992,192,0,0,0,0,0,0,0,0,0,0
 2023-06-24 15:06:29.109,-56624.92593,34285.7208,7009.842337,29506.38139,23664.82004,-60440.77104,16704.10683,-51874.62144,-0.022,0.1,-0.992,192,0,0,0,0,0,0,0,0,0,0
 2023-06-24 15:06:29.109,-56439.78643,33276.7407,5979.158697,28568.83747,22633.04116,-59344.97676,15666.96354,-51179.14691,-0.022,0.1,-0.992,192,0,0,0,0,0,0,0,0,0,0
 2023-06-24 15:06:29.109,-56590.70541,32254.59543,4968.792792,27530.57659,21627.90556,-58706.49918,14668.24289,-50774.35682,-0.022,0.1,-0.992,192,0,0,0,0,0,0,0,0,0,0
 2023-06-24 15:06:29.109,-56850.92441,32597.62765,5334.020297,27793.29899,21987.43337,-59397.41396,15039.72888,-51203.33149,-0.022,0.1,-0.992,192,0,0,0,0,0,0,0,0,0,0
 2023-06-24 15:06:29.109,-56871.80094,33813.47314,6558.113582,28964.30689,23204.03882,-60442.84975,16254.56855,-51859.33284,-0.022,0.1,-0.992,192,0,0,0,0,0,0,0,0,0,0
 2023-06-24 15:06:29.109,-56620.96967,34268.73347,6988.921105,29475.80421,23644.52465,-60449.28705,16686.22544,-51864.56315,-0.022,0.1,-0.992,192,0,0,0,0,0,0,0,0,0,0
 2023-06-24 15:06:29.109,-56434.82434,33270.14694,5966.328796,28557.23692,22629.64369,-59355.81736,15677.64767,-51170.65324,-0.018,0.096,-0.988,192,255,112,3,0,225,32,0,0,0,0
 2023-06-24 15:06:29.109,-56576.4897,32288.59243,4996.978342,27571.72615,21664.22715,-58699.05605,14709.99595,-50752.69797,-0.018,0.096,-0.988,192,0,0,0,0,0,0,0,0,0,0
 2023-06-24 15:06:29.109,-56832.01484,32648.32141,5383.194135,27857.4038,22045.83848,-59377.16328,15077.41393,-51171.77083,-0.018,0.096,-0.988,192,0,0,0,0,0,0,0,0,0,0
 2023-06-24 15:06:29.109,-56861.65325,33814.59073,6559.164114,28976.98033,23215.05823,-60431.42801,16251.01462,-51831.8849,-0.018,0.096,-0.988,192,0,0,0,0,0,0,0,0,0,0
 2023-06-24 15:06:29.109,-56614.08533,34267.41472,6995.023131,29471.8703,23648.3915,-60452.63981,16696.95427,-51846.23472,-0.018,0.096,-0.988,192,0,0,0,0,0,0,0,0,0,0
 2023-06-24 15:06:29.109,-56425.3919,33289.41414,5992.882668,28572.81608,22655.3035,-59367.50732,15713.32106,-51158.47154,-0.018,0.096,-0.988,192,0,0,0,0,0,0,0,0,0,0
 2023-06-24 15:06:29.109,-56564.50916,32302.65168,5015.664401,27585.40542,21685.86364,-58701.67121,14735.81222,-50734.97304,-0.018,0.096,-0.988,192,0,0,0,0,0,0,0,0,0,0
 2023-06-24 15:06:29.109,-56821.95655,32667.4098,5402.662504,27869.80902,22067.60908,-59369.63074,15110.27099,-51149.06146,-0.018,0.096,-0.988,192,0,0,0,0,0,0,0,0,0,0
 2023-06-24 15:06:29.109,-56847.25873,33877.82382,6620.519652,29026.28827,23269.59649,-60420.14038,16310.71613,-51807.07446,-0.018,0.096,-0.988,192,0,0,0,0,0,0,0,0,0,0
 2023-06-24 15:06:29.109,-56607.06688,34276.80245,7001.192212,29467.93639,23646.55866,-60457.6466,16692.57333,-51833.56128,-0.018,0.096,-0.988,192,0,0,0,0,0,0,0,0,0,0
 2023-06-24 15:06:29.109,-56411.2656,33340.73375,6041.184788,28604.3991,22691.8039,-59372.2906,15737.08096,-51146.73688,-0.022,0.098,-0.988,192,255,80,3,16,225,32,0,0,0,0
 2023-06-24 15:06:29.109,-56545.19725,32372.25501,5080.685625,27623.33633,21737.80909,-58692.28347,14785.74601,-50714.45414,-0.022,0.098,-0.988,192,0,0,0,0,0,0,0,0,0,0
 2023-06-24 15:06:29.109,-56804.09751,32721.14339,5450.696403,27913.43962,22115.71003,-59352.35284,15148.06779,-51123.06638,-0.022,0.098,-0.988,192,0,0,0,0,0,0,0,0,0,0
 2023-06-24 15:06:29.109,-56843.7048,33872.59351,6607.42153,29035.96658,23272.54692,-60412.94311,16300.32257,-51787.78491,-0.022,0.098,-0.988,192,0,0,0,0,0,0,0,0,0,0
 2023-06-24 15:06:29.109,-56601.56835,34326.44568,7041.760628,29522.98874,23701.5663,-60458.04893,16739.17672,-51816.73042,-0.022,0.098,-0.988,192,0,0,0,0,0,0,0,0,0,0
 2023-06-24 15:06:29.109,-56410.46094,33340.13025,6035.865073,28606.00842,22690.79807,-59386.64042,15733.32587,-51140.05371,-0.022,0.098,-0.988,192,0,0,0,0,0,0,0,0,0,0
 2023-06-24 15:06:29.109,-56545.1302,32329.00439,5036.496226,27591.86507,21698.69354,-58700.2407,14740.43903,-50704.21704,-0.022,0.098,-0.988,192,0,0,0,0,0,0,0,0,0,0
 2023-06-24 15:06:29.109,-56796.63203,32709.92282,5441.263967,27907.06937,22101.11434,-59345.58026,15134.90261,-51103.03922,-0.022,0.098,-0.988,192,0,0,0,0,0,0,0,0,0,0
 2023-06-24 15:06:29.109,-56841.17905,33837.3001,6574.452707,28993.2524,23232.04556,-60412.7196,16275.78035,-51772.98805,-0.022,0.098,-0.988,192,0,0,0,0,0,0,0,0,0,0
 2023-06-24 15:06:29.109,-56601.18837,34293.81213,7011.764587,29503.9674,23677.67229,-60473.11401,16702.94454,-51810.7178,-0.022,0.098,-0.988,192,0,0,0,0,0,0,0,0,0,0
 2023-06-24 15:06:29.109,-56400.29089,33386.21955,6084.725986,28666.04521,22748.44322,-59402.30899,15782.18678,-51130.53186,-0.026,0.096,-0.99,192,255,48,3,0,225,16,0,0,0,0
 2023-06-24 15:06:29.109,-56534.58018,32362.4426,5069.107422,27631.3159,21739.93251,-58702.94526,14779.8675,-50688.14614,-0.026,0.096,-0.99,192,0,0,0,0,0,0,0,0,0,0
 2023-06-24 15:06:29.109,-56795.22387,32678.04923,5412.60903,27872.223,22075.54395,-59342.89805,15111.18741,-51086.11895,-0.026,0.096,-0.99,192,0,0,0,0,0,0,0,0,0,0
 2023-06-24 15:06:29.109,-56842.98955,33804.73361,6552.771515,28958.98717,23205.87167,-60410.775,16239.95051,-51756.00073,-0.026,0.096,-0.99,192,0,0,0,0,0,0,0,0,0,0
 2023-06-24 15:06:29.109,-56601.25543,34281.56338,7005.126119,29484.99077,23664.17183,-60479.19368,16693.91444,-51798.6255,-0.026,0.096,-0.99,192,0,0,0,0,0,0,0,0,0,0
 2023-06-24 15:06:29.109,-56393.67478,33394.80262,6093.130242,28670.76143,22758.16622,-59412.30022,15800.09053,-51121.07708,-0.026,0.096,-0.99,192,0,0,0,0,0,0,0,0,0,0
 2023-06-24 15:06:29.109,-56522.48788,32377.59708,5087.055872,27647.27505,21753.61177,-58699.05605,14802.64393,-50668.40955,-0.026,0.096,-0.99,192,0,0,0,0,0,0,0,0,0,0
 2023-06-24 15:06:29.109,-56790.50765,32637.88314,5370.31953,27830.55935,22033.12034,-59334.62791,15080.92315,-51065.22007,-0.026,0.096,-0.99,192,0,0,0,0,0,0,0,0,0,0
 2023-06-24 15:06:29.109,-56842.96719,33763.87462,6501.474261,28915.28951,23167.80665,-60408.69628,16210.17798,-51739.97453,-0.026,0.096,-0.99,192,0,0,0,0,0,0,0,0,0,0
 2023-06-24 15:06:29.109,-56601.92598,34273.24853,6990.619837,29482.26386,23665.55764,-60489.34138,16697.17779,-51791.22708,-0.026,0.096,-0.99,192,0,0,0,0,0,0,0,0,0,0
 2023-06-24 15:06:29.109,-56394.23357,33388.79,6083.563695,28673.10836,22761.0049,-59432.66266,15788.28881,-51121.61352,-0.016,0.096,-0.988,192,255,128,3,0,225,32,0,0,0,0
 2023-06-24 15:06:29.109,-56529.21576,32305.82563,5014.725627,27582.07501,21686.28832,-58717.27272,14717.7073,-50669.50478,-0.016,0.096,-0.988,192,0,0,0,0,0,0,0,0,0,0
 2023-06-24 15:06:29.109,-56789.34536,32612.62567,5347.945434,27817.88591,22013.87549,-59336.10312,15041.53938,-51055.63117,-0.016,0.096,-0.988,192,0,0,0,0,0,0,0,0,0,0
 2023-06-24 15:06:29.109,-56845.89527,33724.93788,6464.638587,28890.38967,23123.19256,-60412.92076,16160.19948,-51732.86667,-0.016,0.096,-0.988,192,0,0,0,0,0,0,0,0,0,0
 2023-06-24 15:06:29.109,-56608.6315,34239.25152,6957.293386,29442.92479,23622.75405,-60505.83696,16669.46163,-51792.16585,-0.016,0.096,-0.988,192,0,0,0,0,0,0,0,0,0,0
 2023-06-24 15:06:29.109,-56397.92161,33386.33131,6081.663797,28660.70314,22748.46557,-59452.66747,15794.34613,-51126.39679,-0.016,0.096,-0.988,192,0,0,0,0,0,0,0,0,0,0
 2023-06-24 15:06:29.109,-56526.69001,32323.72937,5030.349497,27595.35195,21696.07838,-58721.43015,14741.31074,-50665.1909,-0.016,0.096,-0.988,192,0,0,0,0,0,0,0,0,0,0
 2023-06-24 15:06:29.110,-56783.17628,32639.38071,5371.2136,27830.78287,22033.36621,-59326.13424,15082.8454,-51042.24247,-0.016,0.096,-0.988,192,0,0,0,0,0,0,0,0,0,0
 2023-06-24 15:06:29.110,-56837.17809,33770.98248,6515.04177,28919.91632,23168.4772,-60399.04033,16212.92725,-51716.03581,-0.016,0.096,-0.988,192,0,0,0,0,0,0,0,0,0,0
 2023-06-24 15:06:29.110,-56600.33901,34267.92881,6992.653846,29457.72165,23644.14467,-60504.76408,16684.4373,-51783.76159,-0.016,0.096,-0.988,192,0,0,0,0,0,0,0,0,0,0
 2023-06-24 15:06:29.110,-56385.56109,33385.66075,6088.838707,28651.1366,22747.30328,-59460.17766,15783.37142,-51125.39096,-0.016,0.094,-0.99,192,255,128,2,240,225,16,0,0,0,0
 2023-06-24 15:06:29.110,-56508.16041,32312.5535,5025.677982,27578.90106,21691.2057,-58714.21054,14721.59651,-50658.30656,-0.016,0.094,-0.99,192,0,0,0,0,0,0,0,0,0,0
 2023-06-24 15:06:29.110,-56769.34055,32581.66851,5317.614116,27773.92003,21979.23028,-59311.73972,15018.58413,-51035.33578,-0.016,0.094,-0.99,192,0,0,0,0,0,0,0,0,0,0
 2023-06-24 15:06:29.110,-56818.89436,33769.3061,6512.068988,28919.6928,23168.65601,-60380.68955,16210.33445,-51709.44204,-0.016,0.094,-0.99,192,0,0,0,0,0,0,0,0,0,0
 2023-06-24 15:06:29.110,-56587.26324,34269.44873,6992.095052,29455.46412,23648.16799,-60500.07021,16698.11656,-51788.54487,-0.016,0.094,-0.99,192,0,0,0,0,0,0,0,0,0,0
 2023-06-24 15:06:29.110,-56369.33373,33431.14655,6131.329373,28680.99853,22786.21766,-59460.04354,15840.70365,-51132.94585,-0.016,0.094,-0.99,192,0,0,0,0,0,0,0,0,0,0
 2023-06-24 15:06:29.110,-56493.56472,32313.157,5022.727552,27580.91272,21685.12603,-58706.83446,14729.44197,-50660.65349,-0.016,0.094,-0.99,192,0,0,0,0,0,0,0,0,0,0
 2023-06-24 15:06:29.110,-56760.17633,32529.81246,5260.684223,27735.0727,21925.18376,-59300.51914,14968.7621,-51035.58165,-0.016,0.094,-0.99,192,0,0,0,0,0,0,0,0,0,0
 2023-06-24 15:06:29.110,-56812.47941,33715.72896,6457.37427,28868.17203,23109.44624,-60373.91697,16146.40846,-51710.58198,-0.016,0.094,-0.99,192,0,0,0,0,0,0,0,0,0,0
 2023-06-24 15:06:29.110,-56570.05239,34302.19404,7030.674163,29488.5,23678.94634,-60494.50463,16713.82984,-51788.09783,-0.016,0.094,-0.99,192,0,0,0,0,0,0,0,0,0,0
 2023-06-24 15:06:29.110,-56354.38041,33438.79085,6142.728763,28705.09371,22799.13697,-59467.39727,15836.38976,-51141.03718,-0.018,0.094,-0.984,192,255,112,2,240,225,64,0,0,0,0
 2023-06-24 15:06:29.110,-56473.62697,32334.99465,5042.68766,27608.67359,21710.58467,-58701.96178,14742.83066,-50660.85466,-0.018,0.094,-0.984,192,0,0,0,0,0,0,0,0,0,0
 2023-06-24 15:06:29.110,-56731.76726,32603.84144,5336.836617,27800.16098,21995.83763,-59276.40161,15031.21287,-51024.24932,-0.018,0.094,-0.984,192,0,0,0,0,0,0,0,0,0,0
 2023-06-24 15:06:29.110,-56793.92747,33732.38101,6475.501534,28879.862,23127.19353,-60357.51079,16171.37535,-51706.75984,-0.018,0.094,-0.984,192,0,0,0,0,0,0,0,0,0,0
 2023-06-24 15:06:29.110,-56569.4936,34230.55669,6954.924101,29416.59444,23608.40423,-60504.58527,16646.28287,-51802.20178,-0.018,0.094,-0.984,192,0,0,0,0,0,0,0,0,0,0
 2023-06-24 15:06:29.110,-56344.85857,33422.54113,6123.282745,28677.37754,22780.47327,-59478.30492,15827.38201,-51156.14696,-0.018,0.094,-0.984,192,0,0,0,0,0,0,0,0,0,0
 2023-06-24 15:06:29.110,-56441.66397,32432.04593,5145.103353,27690.32451,21799.92459,-58683.29807,14838.60789,-50654.81969,-0.018,0.094,-0.984,192,0,0,0,0,0,0,0,0,0,0
 2023-06-24 15:06:29.110,-56703.84994,32645.66155,5386.166917,27836.72843,22033.29915,-59249.71363,15070.619,-51013.54283,-0.018,0.094,-0.984,192,0,0,0,0,0,0,0,0,0,0
 2023-06-24 15:06:29.110,-56770.94987,33761.84061,6513.812424,28903.55485,23156.09433,-60333.66148,16205.37236,-51695.87454,-0.018,0.094,-0.984,192,0,0,0,0,0,0,0,0,0,0
 2023-06-24 15:06:29.110,-56548.08063,34283.15035,7016.190233,29467.35525,23654.87351,-60493.74467,16703.101,-51796.6362,-0.018,0.094,-0.984,192,0,0,0,0,0,0,0,0,0,0
 2023-06-24 15:06:29.110,-56333.23566,33412.28168,6117.895975,28680.99853,22765.60936,-59489.16787,15809.88059,-51165.13236,-0.018,0.094,-0.984,192,0,0,0,0,0,0,0,0,0,0
 2023-06-24 15:06:29.589,-56443.74269,32307.99375,5019.464197,27573.69311,21678.80048,-58698.74313,14728.52555,-50667.85075,-0.022,0.102,-0.986,192,255,80,3,48,225,48,0,0,0,0
 2023-06-24 15:06:29.589,-56714.2882,32477.62114,5210.92924,27672.04078,21869.93025,-59263.3929,14921.06347,-51024.15991,-0.022,0.102,-0.986,192,0,0,0,0,0,0,0,0,0,0
 2023-06-24 15:06:29.589,-56777.47658,33652.7641,6402.076054,28790.74559,23043.50859,-60343.83152,16094.23948,-51703.18356,-0.022,0.102,-0.986,192,0,0,0,0,0,0,0,0,0,0
 2023-06-24 15:06:29.589,-56545.7337,34223.89587,6956.376965,29412.12409,23598.59182,-60509.68146,16646.70755,-51807.74502,-0.022,0.102,-0.986,192,0,0,0,0,0,0,0,0,0,0
 2023-06-24 15:06:29.589,-56319.73521,33406.47023,6112.553908,28669.77795,22760.75903,-59503.6518,15812.69691,-51174.5648,-0.022,0.102,-0.986,192,0,0,0,0,0,0,0,0,0,0
 2023-06-24 15:06:29.589,-56418.08288,32356.89936,5074.091861,27611.13228,21721.02293,-58691.56822,14778.39229,-50663.9392,-0.022,0.102,-0.986,192,0,0,0,0,0,0,0,0,0,0
 2023-06-24 15:06:29.589,-56679.55359,32596.68888,5336.74721,27782.95014,21979.94554,-59233.50861,15030.72113,-51006.21146,-0.022,0.102,-0.986,192,0,0,0,0,0,0,0,0,0,0
 2023-06-24 15:06:29.589,-56750.00629,33739.8912,6486.811517,28882.38774,23125.87477,-60320.38454,16169.27429,-51690.04073,-0.022,0.102,-0.986,192,0,0,0,0,0,0,0,0,0,0
 2023-06-24 15:06:29.589,-56531.47328,34256.10474,6985.478936,29440.71197,23623.84929,-60505.88167,16673.14967,-51808.54968,-0.022,0.102,-0.986,192,0,0,0,0,0,0,0,0,0,0
 2023-06-24 15:06:29.589,-56305.65361,33441.02602,6145.567434,28699.72929,22787.9611,-59508.45742,15847.31976,-51182.49967,-0.022,0.102,-0.986,192,0,0,0,0,0,0,0,0,0,0
 2023-06-24 15:06:29.589,-56402.3249,32373.50671,5085.155974,27640.63658,21731.90823,-58686.27086,14788.58468,-50666.93433,-0.014,0.1,-0.988,192,255,144,3,32,225,32,0,0,0,0
 2023-06-24 15:06:29.589,-56661.47103,32599.21463,5339.004736,27790.7509,21977.21863,-59217.70593,15032.174,-51005.29504,-0.014,0.1,-0.988,192,0,0,0,0,0,0,0,0,0,0
 2023-06-24 15:06:29.589,-56730.64968,33754.08456,6504.849375,28896.84932,23135.95541,-60303.77719,16191.06724,-51689.57134,-0.014,0.1,-0.988,192,0,0,0,0,0,0,0,0,0,0
 2023-06-24 15:06:29.589,-56506.57344,34334.13468,7063.777097,29516.88671,23697.94532,-60492.33651,16752.87834,-51809.93549,-0.014,0.1,-0.988,192,0,0,0,0,0,0,0,0,0,0
 2023-06-24 15:06:29.589,-56292.44373,33438.7685,6142.527597,28698.70111,22779.86977,-59513.66538,15835.56275,-51196.9836,-0.014,0.1,-0.988,192,0,0,0,0,0,0,0,0,0,0
 2023-06-24 15:06:29.589,-56397.67574,32289.37474,4999.034703,27552.4813,21642.50125,-58692.23877,14703.31278,-50682.31233,-0.014,0.1,-0.988,192,0,0,0,0,0,0,0,0,0,0
 2023-06-24 15:06:29.589,-56663.37093,32478.89518,5215.623106,27668.19628,21858.57557,-59220.61166,14911.25106,-51016.3368,-0.014,0.1,-0.988,192,0,0,0,0,0,0,0,0,0,0
 2023-06-24 15:06:29.589,-56737.75753,33634.74859,6379.701958,28776.44047,23022.31914,-60312.7626,16060.62246,-51701.90951,-0.014,0.1,-0.988,192,0,0,0,0,0,0,0,0,0,0
 2023-06-24 15:06:29.589,-56516.29645,34233.10479,6957.494552,29415.83448,23600.71523,-60516.99048,16634.25763,-51830.36498,-0.014,0.1,-0.988,192,0,0,0,0,0,0,0,0,0,0
 2023-06-24 15:06:29.589,-56289.67211,33421.84823,6122.165158,28679.50096,22770.21381,-59535.95007,15816.83198,-51213.74741,-0.014,0.1,-0.988,192,0,0,0,0,0,0,0,0,0,0
 2023-06-24 15:06:29.589,-56382.07422,32328.51265,5037.032668,27589.18286,21688.0094,-58693.08814,14726.6033,-50684.32399,-0.01,0.096,-0.986,192,255,176,3,0,225,48,0,0,0,0
 2023-06-24 15:06:29.589,-56639.52162,32553.32649,5288.802718,27739.31953,21929.54235,-59201.2327,14978.90979,-51005.13858,-0.01,0.096,-0.986,192,0,0,0,0,0,0,0,0,0,0
 2023-06-24 15:06:29.589,-56722.17837,33663.0012,6409.45213,28799.8204,23048.85066,-60295.37294,16095.84881,-51694.57813,-0.01,0.096,-0.986,192,0,0,0,0,0,0,0,0,0,0
 2023-06-24 15:06:29.589,-56512.72017,34213.56937,6942.697697,29390.55465,23583.50439,-60516.94578,16627.97679,-51837.0258,-0.01,0.096,-0.986,192,0,0,0,0,0,0,0,0,0,0
 2023-06-24 15:06:29.589,-56283.27951,33435.95218,6138.884263,28696.6671,22790.97859,-59543.66142,15832.14293,-51225.48207,-0.01,0.096,-0.986,192,0,0,0,0,0,0,0,0,0,0
 2023-06-24 15:06:29.590,-56375.12283,32306.56324,5014.055075,27584.37724,21676.25239,-58695.43507,14710.13006,-50692.57178,-0.01,0.096,-0.986,192,0,0,0,0,0,0,0,0,0,0
 2023-06-24 15:06:29.590,-56643.47787,32447.55804,5180.262647,27653.0865,21839.1519,-59201.81384,14874.28127,-51015.0404,-0.01,0.096,-0.986,192,0,0,0,0,0,0,0,0,0,0
 2023-06-24 15:06:29.590,-56722.17837,33599.20932,6344.855588,28746.55619,22992.3231,-60292.69073,16031.25227,-51701.61893,-0.01,0.096,-0.986,192,0,0,0,0,0,0,0,0,0,0
 2023-06-24 15:06:29.590,-56505.29939,34202.61701,6934.382848,29387.51482,23579.794,-60521.90787,16616.5774,-51847.64288,-0.01,0.096,-0.986,192,0,0,0,0,0,0,0,0,0,0
 2023-06-24 15:06:29.590,-56273.33299,33452.47012,6157.704432,28717.63303,22810.26814,-59555.79842,15839.65312,-51240.5248,-0.01,0.096,-0.986,192,0,0,0,0,0,0,0,0,0,0
 2023-06-24 15:06:29.590,-56360.19186,32343.82359,5052.745945,27606.75134,21701.88984,-58691.76938,14752.64308,-50695.56692,-0.012,0.092,-0.986,192,255,160,2,224,225,48,0,0,0,0
 2023-06-24 15:06:29.590,-56622.31077,32516.04378,5248.502523,27708.98821,21898.96517,-59179.68561,14948.22084,-51004.28921,-0.012,0.092,-0.986,192,0,0,0,0,0,0,0,0,0,0
 2023-06-24 15:06:29.590,-56716.29986,33561.7478,6301.336742,28715.26375,22951.79939,-60282.92302,15994.10367,-51699.54022,-0.012,0.092,-0.986,192,0,0,0,0,0,0,0,0,0,0
 2023-06-24 15:06:29.590,-56510.59675,34122.3519,6846.920472,29314.15639,23497.18195,-60533.30726,16546.30352,-51858.50583,-0.012,0.092,-0.986,192,0,0,0,0,0,0,0,0,0,0
 2023-06-24 15:06:29.590,-56272.77419,33424.77631,6127.127245,28689.91687,22778.931,-59571.86932,15823.15753,-51252.86296,-0.012,0.092,-0.986,192,0,0,0,0,0,0,0,0,0,0
 2023-06-24 15:06:29.590,-56352.3017,32323.48351,5027.287308,27597.72123,21681.72856,-58693.98221,14719.04841,-50700.4396,-0.012,0.092,-0.986,192,0,0,0,0,0,0,0,0,0,0
 2023-06-24 15:06:29.590,-56611.93956,32500.08464,5228.430656,27699.62283,21878.02158,-59166.78866,14915.96728,-50999.55064,-0.012,0.092,-0.986,192,0,0,0,0,0,0,0,0,0,0
 2023-06-24 15:06:29.590,-56700.69834,33614.76613,6358.311338,28771.18781,23004.66126,-60260.03483,16040.6847,-51686.75502,-0.012,0.092,-0.986,192,0,0,0,0,0,0,0,0,0,0
 2023-06-24 15:06:29.590,-56490.7037,34216.40804,6941.58011,29408.72662,23591.79689,-60516.85637,16634.23528,-51849.05104,-0.012,0.092,-0.986,192,0,0,0,0,0,0,0,0,0,0
 2023-06-24 15:06:29.590,-56248.94723,33532.51171,6234.214453,28798.38989,22889.25921,-59565.00734,15934.2457,-51248.79494,-0.012,0.092,-0.986,192,0,0,0,0,0,0,0,0,0,0
 2023-06-24 15:06:29.590,-56334.48736,32353.34544,5064.078279,27626.44322,21714.00448,-58684.52742,14753.35833,-50696.0363,-0.016,0.09,-0.98,192,255,128,2,208,225,96,0,0,0,0
 2023-06-24 15:06:29.590,-56603.35649,32448.67563,5188.75631,27652.68417,21834.18981,-59152.81882,14868.78274,-50995.88495,-0.016,0.09,-0.98,192,0,0,0,0,0,0,0,0,0,0
 2023-06-24 15:06:29.590,-56692.83053,33570.46498,6319.195785,28715.39786,22962.01413,-60247.56256,15993.8131,-51683.51402,-0.016,0.09,-0.98,192,0,0,0,0,0,0,0,0,0,0
 2023-06-24 15:06:29.590,-56485.85337,34172.01748,6902.822185,29349.42744,23541.88544,-60520.14208,16570.97984,-51856.58358,-0.016,0.09,-0.98,192,0,0,0,0,0,0,0,0,0,0
 2023-06-24 15:06:29.590,-56257.97734,33399.96587,6104.663742,28652.03066,22747.68326,-59588.2755,15789.92048,-51272.68896,-0.016,0.09,-0.98,192,0,0,0,0,0,0,0,0,0,0
 2023-06-24 15:06:29.590,-56341.30464,32221.44779,4931.666545,27486.14132,21580.81044,-58696.82088,14619.58314,-50712.666,-0.016,0.09,-0.98,192,0,0,0,0,0,0,0,0,0,0
 2023-06-24 15:06:29.590,-56601.61306,32381.82156,5119.734123,27581.00213,21769.28035,-59145.5992,14802.35336,-50996.98019,-0.016,0.09,-0.98,192,0,0,0,0,0,0,0,0,0,0
 2023-06-24 15:06:29.590,-56692.65171,33528.57781,6281.533096,28671.34257,22926.45251,-60241.0582,15965.35933,-51683.9387,-0.016,0.09,-0.98,192,0,0,0,0,0,0,0,0,0,0
 2023-06-24 15:06:29.590,-56479.43842,34213.43526,6950.81138,29384.7432,23591.05928,-60519.65034,16630.88252,-51858.30466,-0.016,0.09,-0.98,192,0,0,0,0,0,0,0,0,0,0
 2023-06-24 15:06:29.590,-56243.00167,33484.41076,6195.814156,28732.13932,22834.83271,-59593.10348,15879.46157,-51276.80168,-0.016,0.09,-0.98,192,0,0,0,0,0,0,0,0,0,0
 2023-06-24 15:06:29.590,-56324.02674,32270.80044,4984.573124,27541.12661,21630.92305,-58693.80339,14675.01547,-50712.55424,-0.016,0.096,-0.986,192,255,128,3,0,225,48,0,0,0,0
 2023-06-24 15:06:29.590,-56582.74818,32405.4697,5143.181103,27609.23238,21790.22393,-59130.1318,14842.87707,-50991.68283,-0.016,0.096,-0.986,192,0,0,0,0,0,0,0,0,0,0
 2023-06-24 15:06:29.590,-56679.59829,33504.92966,6256.320328,28655.65165,22896.03178,-60227.75891,15943.85695,-51682.77641,-0.016,0.096,-0.986,192,0,0,0,0,0,0,0,0,0,0
 2023-06-24 15:06:29.590,-56473.62697,34151.8115,6889.657007,29335.90464,23526.06041,-60522.69018,16571.85156,-51869.14526,-0.016,0.096,-0.986,192,0,0,0,0,0,0,0,0,0,0
 2023-06-24 15:06:29.590,-56234.4186,33466.68583,6183.744214,28730.12766,22821.93575,-59601.53009,15869.71621,-51290.52565,-0.016,0.096,-0.986,192,0,0,0,0,0,0,0,0,0,0
 2023-06-24 15:06:29.590,-56300.26684,32333.94412,5054.779953,27603.59974,21695.94427,-58681.12995,14751.95017,-50710.00614,-0.016,0.096,-0.986,192,0,0,0,0,0,0,0,0,0,0
 2023-06-24 15:06:29.590,-56562.36339,32431.10716,5176.619312,27630.60065,21814.92261,-59111.13281,14862.54661,-50984.15029,-0.016,0.096,-0.986,192,0,0,0,0,0,0,0,0,0,0
 2023-06-24 15:06:29.590,-56658.67706,33570.33087,6323.532024,28726.14905,22964.36107,-60205.00484,16014.04143,-51669.67829,-0.016,0.096,-0.986,192,0,0,0,0,0,0,0,0,0,0
 2023-06-24 15:06:29.590,-56460.99823,34184.66856,6919.384828,29378.77528,23568.37226,-60519.1586,16622.45591,-51866.97714,-0.016,0.096,-0.986,192,0,0,0,0,0,0,0,0,0,0
 2023-06-24 15:06:29.590,-56218.41475,33501.24162,6211.907412,28764.05761,22863.84527,-59607.00626,15920.49937,-51294.28074,-0.016,0.096,-0.986,192,0,0,0,0,0,0,0,0,0,0
 2023-06-24 15:06:29.590,-56291.50495,32295.9238,5011.30581,27569.49098,21658.43805,-58684.97445,14711.82879,-50714.99058,-0.024,0.096,-0.982,192,255,64,3,0,225,80,0,0,0,0
 2023-06-24 15:06:29.590,-56555.43435,32392.5504,5133.65926,27598.23532,21775.02474,-59099.95694,14826.15797,-50978.31648,-0.024,0.096,-0.982,192,0,0,0,0,0,0,0,0,0,0
 2023-06-24 15:06:29.590,-56667.84128,33465.47883,6224.31263,28610.07644,22850.79185,-60204.58015,15907.75888,-51671.15351,-0.024,0.096,-0.982,192,0,0,0,0,0,0,0,0,0,0
 2023-06-24 15:06:29.590,-56461.71349,34173.93973,6914.266278,29349.09217,23547.24986,-60522.2655,16609.40249,-51871.55925,-0.024,0.096,-0.982,192,0,0,0,0,0,0,0,0,0,0
 2023-06-24 15:06:29.590,-56223.66741,33457.52161,6169.036766,28716.35899,22816.1243,-59625.71467,15875.39355,-51311.24572,-0.024,0.096,-0.982,192,0,0,0,0,0,0,0,0,0,0
 2023-06-24 15:06:29.590,-56291.59436,32240.93851,4957.080478,27512.02464,21606.15732,-58694.92098,14659.41395,-50726.07705,-0.024,0.096,-0.982,192,0,0,0,0,0,0,0,0,0,0
 2023-06-24 15:06:29.590,-56558.36243,32297.84605,5038.127904,27504.46975,21686.73535,-59101.94625,14736.39336,-50985.15612,-0.024,0.096,-0.982,192,0,0,0,0,0,0,0,0,0,0
 2023-06-24 15:06:29.590,-56670.67995,33398.84828,6151.267129,28548.76561,22792.07382,-60206.21183,15836.79209,-51676.78615,-0.024,0.096,-0.982,192,0,0,0,0,0,0,0,0,0,0
 2023-06-24 15:06:29.590,-56463.97101,34121.90486,6857.515199,29301.88528,23500.37825,-60535.27421,16555.55714,-51884.47856,-0.024,0.096,-0.982,192,0,0,0,0,0,0,0,0,0,0
 2023-06-24 15:06:29.590,-56220.64992,33446.94924,6156.340975,28708.49117,22803.04853,-59642.43378,15847.52093,-51327.47308,-0.024,0.096,-0.982,192,0,0,0,0,0,0,0,0,0,0
 2023-06-24 15:06:29.590,-56282.22898,32257.65762,4965.730603,27532.0071,21614.89685,-58694.04926,14670.18749,-50732.38024,-0.02,0.092,-0.982,192,255,96,2,224,225,80,0,0,0,0
